2D Measure spectrum data V5.74

<< MEASURE 1 >>
Data count = 2048
Exposure time = 30000 msec
Average = 10
Inspected time = 2020/10/19 17:15

Wave-dcm-1,Dark spec.  ,Spectrum
    108.17,  2241.20000,  2061.00000
    108.66,  2247.90000,  2048.00000
    109.15,  2261.50000,  2026.90000
    109.65,  2290.60000,  2002.00000
    110.14,  2297.80000,  1993.70000
    110.63,  2303.20000,  1979.80000
    111.13,  2320.10000,  1953.80000
    111.62,  2307.30000,  1938.20000
    112.11,  2326.60000,  1915.90000
    112.60,  2347.40000,  1913.40000
    113.10,  2337.10000,  1912.40000
    113.59,  2352.10000,  1923.40000
    114.08,  2365.90000,  1929.30000
    114.58,  2355.80000,  1925.70000
    115.07,  2402.40000,  1911.10000
    115.56,  2417.40000,  1901.20000
    116.06,  2407.50000,  1887.20000
    116.55,  2405.70000,  1887.40000
    117.04,  2388.30000,  1900.90000
    117.53,  2366.50000,  1901.80000
    118.03,  2401.90000,  1900.60000
    118.52,  2416.50000,  1907.40000
    119.01,  2413.20000,  1922.10000
    119.51,  2504.30000,  1942.40000
    120.00,  2587.50000,  1986.70000
    120.49,  2618.30000,  2018.10000
    120.98,  2611.60000,  2060.00000
    121.48,  2529.00000,  2105.30000
    121.97,  2433.70000,  2150.80000
    122.46,  2427.10000,  2191.50000
    122.95,  2453.70000,  2247.30000
    123.45,  2491.50000,  2296.40000
    123.94,  2492.50000,  2362.40000
    124.43,  2510.60000,  2419.90000
    124.92,  2544.50000,  2474.00000
    125.42,  2539.70000,  2510.30000
    125.91,  2556.90000,  2561.70000
    126.40,  2556.20000,  2587.60000
    126.89,  2523.60000,  2642.00000
    127.39,  2513.20000,  2686.80000
    127.88,  2507.10000,  2733.20000
    128.37,  2510.70000,  2761.30000
    128.86,  2530.90000,  2813.50000
    129.35,  2527.30000,  2850.30000
    129.85,  2531.60000,  2908.40000
    130.34,  2521.60000,  2958.20000
    130.83,  2524.10000,  3004.10000
    131.32,  2539.40000,  3029.60000
    131.81,  2544.20000,  3058.20000
    132.31,  2540.40000,  3070.50000
    132.80,  2540.00000,  3077.60000
    133.29,  2520.20000,  3091.20000
    133.78,  2526.70000,  3109.80000
    134.27,  2543.00000,  3121.40000
    134.77,  2556.80000,  3144.40000
    135.26,  2577.50000,  3173.40000
    135.75,  2571.70000,  3222.10000
    136.24,  2585.00000,  3282.10000
    136.73,  2570.40000,  3309.30000
    137.23,  2581.20000,  3325.30000
    137.72,  2579.20000,  3336.10000
    138.21,  2577.80000,  3340.30000
    138.70,  2569.60000,  3364.10000
    139.19,  2600.50000,  3398.70000
    139.68,  2586.70000,  3412.10000
    140.18,  2588.30000,  3450.50000
    140.67,  2598.10000,  3478.30000
    141.16,  2606.60000,  3503.00000
    141.65,  2601.20000,  3536.60000
    142.14,  2598.00000,  3569.70000
    142.63,  2618.20000,  3599.00000
    143.13,  2619.50000,  3631.70000
    143.62,  2652.30000,  3650.10000
    144.11,  2654.30000,  3677.60000
    144.60,  2616.00000,  3709.60000
    145.09,  2598.50000,  3733.60000
    145.58,  2652.10000,  3756.20000
    146.07,  2665.90000,  3783.00000
    146.56,  2678.30000,  3818.10000
    147.06,  2666.30000,  3878.80000
    147.55,  2636.30000,  3933.60000
    148.04,  2594.80000,  3971.20000
    148.53,  2626.50000,  3992.80000
    149.02,  2603.20000,  4012.50000
    149.51,  2680.60000,  4035.70000
    150.00,  2737.10000,  4083.70000
    150.49,  2759.60000,  4132.10000
    150.99,  2762.20000,  4163.30000
    151.48,  2743.60000,  4195.40000
    151.97,  2659.30000,  4222.50000
    152.46,  2668.80000,  4241.30000
    152.95,  2651.20000,  4254.00000
    153.44,  2649.60000,  4260.80000
    153.93,  2674.70000,  4248.10000
    154.42,  2689.90000,  4247.30000
    154.91,  2660.40000,  4226.70000
    155.40,  2643.90000,  4202.90000
    155.89,  2630.40000,  4176.50000
    156.39,  2648.60000,  4154.70000
    156.88,  2628.70000,  4162.60000
    157.37,  2636.30000,  4192.30000
    157.86,  2635.20000,  4230.70000
    158.35,  2642.40000,  4281.40000
    158.84,  2663.50000,  4309.60000
    159.33,  2707.50000,  4306.40000
    159.82,  2712.40000,  4291.20000
    160.31,  2728.30000,  4257.20000
    160.80,  2763.60000,  4238.40000
    161.29,  2719.60000,  4210.80000
    161.78,  2689.80000,  4163.50000
    162.27,  2656.60000,  4114.60000
    162.76,  2646.50000,  4080.80000
    163.25,  2659.40000,  4045.90000
    163.74,  2693.50000,  4044.60000
    164.23,  2696.80000,  4040.70000
    164.72,  2722.40000,  4044.00000
    165.21,  2695.90000,  4032.80000
    165.70,  2680.40000,  4016.60000
    166.20,  2713.70000,  3991.30000
    166.69,  2735.70000,  3963.70000
    167.18,  2750.40000,  3922.60000
    167.67,  2745.80000,  3891.80000
    168.16,  2717.90000,  3843.30000
    168.65,  2671.20000,  3796.80000
    169.14,  2698.10000,  3767.60000
    169.63,  2704.30000,  3741.40000
    170.12,  2698.90000,  3707.40000
    170.61,  2689.00000,  3675.50000
    171.10,  2746.40000,  3629.40000
    171.59,  2744.30000,  3580.20000
    172.08,  2753.80000,  3539.80000
    172.57,  2746.30000,  3520.00000
    173.06,  2737.10000,  3493.20000
    173.55,  2720.30000,  3472.00000
    174.04,  2707.60000,  3455.70000
    174.53,  2705.00000,  3434.00000
    175.02,  2696.80000,  3432.90000
    175.50,  2720.90000,  3438.40000
    175.99,  2746.60000,  3425.50000
    176.48,  2770.40000,  3400.80000
    176.97,  2747.10000,  3383.50000
    177.46,  2758.20000,  3351.30000
    177.95,  2730.20000,  3339.20000
    178.44,  2716.20000,  3340.70000
    178.93,  2692.80000,  3331.60000
    179.42,  2712.90000,  3311.60000
    179.91,  2727.70000,  3298.90000
    180.40,  2744.40000,  3294.30000
    180.89,  2754.20000,  3322.60000
    181.38,  2741.10000,  3372.40000
    181.87,  2731.30000,  3407.10000
    182.36,  2726.70000,  3418.60000
    182.85,  2696.30000,  3407.10000
    183.34,  2715.10000,  3382.40000
    183.83,  2729.50000,  3364.10000
    184.32,  2730.40000,  3345.30000
    184.81,  2775.20000,  3333.50000
    185.29,  2765.70000,  3312.90000
    185.78,  2730.90000,  3293.50000
    186.27,  2739.20000,  3271.40000
    186.76,  2730.60000,  3245.90000
    187.25,  2705.10000,  3226.90000
    187.74,  2777.20000,  3246.00000
    188.23,  2802.70000,  3263.60000
    188.72,  2821.60000,  3303.20000
    189.21,  2806.50000,  3341.90000
    189.70,  2770.10000,  3364.80000
    190.19,  2735.70000,  3376.30000
    190.67,  2726.80000,  3396.30000
    191.16,  2730.90000,  3405.90000
    191.65,  2736.10000,  3422.80000
    192.14,  2724.60000,  3421.60000
    192.63,  2746.10000,  3433.10000
    193.12,  2770.30000,  3419.40000
    193.61,  2752.70000,  3410.20000
    194.10,  2769.40000,  3396.90000
    194.59,  2759.60000,  3377.50000
    195.07,  2747.20000,  3356.70000
    195.56,  2755.80000,  3353.80000
    196.05,  2741.90000,  3319.60000
    196.54,  2727.60000,  3296.90000
    197.03,  2750.90000,  3273.00000
    197.52,  2799.10000,  3240.80000
    198.01,  2804.80000,  3225.40000
    198.49,  2804.60000,  3213.50000
    198.98,  2795.20000,  3189.10000
    199.47,  2748.70000,  3170.80000
    199.96,  2732.80000,  3146.70000
    200.45,  2749.50000,  3116.20000
    200.94,  2727.30000,  3101.50000
    201.43,  2733.70000,  3077.60000
    201.91,  2732.80000,  3055.30000
    202.40,  2732.40000,  3022.90000
    202.89,  2738.70000,  2998.90000
    203.38,  2759.70000,  2987.70000
    203.87,  2758.20000,  2993.20000
    204.36,  2744.90000,  2985.70000
    204.84,  2737.90000,  2986.90000
    205.33,  2758.70000,  2974.00000
    205.82,  2770.30000,  2975.90000
    206.31,  2766.60000,  2983.20000
    206.80,  2766.50000,  2990.40000
    207.28,  2772.60000,  2972.60000
    207.77,  2782.00000,  2974.00000
    208.26,  2794.20000,  2984.10000
    208.75,  2789.60000,  2997.50000
    209.24,  2771.00000,  3000.50000
    209.72,  2783.80000,  3006.40000
    210.21,  2800.30000,  2990.50000
    210.70,  2779.00000,  3001.00000
    211.19,  2790.80000,  3025.10000
    211.68,  2797.70000,  3040.30000
    212.16,  2810.80000,  3039.40000
    212.65,  2821.90000,  3037.00000
    213.14,  2807.80000,  3019.30000
    213.63,  2787.40000,  3017.40000
    214.12,  2761.70000,  3023.80000
    214.60,  2774.90000,  3024.30000
    215.09,  2791.90000,  3047.10000
    215.58,  2793.20000,  3066.80000
    216.07,  2787.60000,  3076.60000
    216.55,  2797.10000,  3088.00000
    217.04,  2732.40000,  3101.80000
    217.53,  2725.10000,  3110.90000
    218.02,  2722.70000,  3127.90000
    218.50,  2726.40000,  3151.80000
    218.99,  2749.70000,  3165.60000
    219.48,  2784.20000,  3178.90000
    219.97,  2753.30000,  3188.20000
    220.45,  2759.10000,  3196.00000
    220.94,  2755.80000,  3188.70000
    221.43,  2762.20000,  3201.30000
    221.92,  2785.90000,  3197.90000
    222.40,  2787.70000,  3196.90000
    222.89,  2782.60000,  3184.40000
    223.38,  2805.30000,  3173.20000
    223.86,  2825.50000,  3164.90000
    224.35,  2845.80000,  3170.20000
    224.84,  2847.30000,  3157.70000
    225.33,  2835.90000,  3141.00000
    225.81,  2804.50000,  3121.60000
    226.30,  2785.50000,  3099.70000
    226.79,  2773.80000,  3087.70000
    227.27,  2764.50000,  3071.70000
    227.76,  2762.50000,  3054.50000
    228.25,  2797.30000,  3017.20000
    228.74,  2813.40000,  2981.70000
    229.22,  2831.90000,  2937.40000
    229.71,  2821.00000,  2896.10000
    230.20,  2805.00000,  2856.20000
    230.68,  2795.90000,  2822.30000
    231.17,  2781.40000,  2793.40000
    231.66,  2759.80000,  2755.10000
    232.14,  2750.00000,  2722.50000
    232.63,  2742.00000,  2687.10000
    233.12,  2763.40000,  2661.90000
    233.60,  2788.30000,  2631.80000
    234.09,  2762.70000,  2619.40000
    234.58,  2747.00000,  2602.90000
    235.06,  2745.30000,  2594.90000
    235.55,  2747.20000,  2569.50000
    236.04,  2740.80000,  2553.60000
    236.52,  2762.80000,  2517.50000
    237.01,  2745.20000,  2493.20000
    237.50,  2781.20000,  2474.10000
    237.98,  2779.90000,  2463.50000
    238.47,  2837.60000,  2447.70000
    238.96,  2844.80000,  2431.90000
    239.44,  2835.10000,  2425.10000
    239.93,  2829.30000,  2418.80000
    240.41,  2787.80000,  2408.50000
    240.90,  2718.20000,  2406.10000
    241.39,  2741.10000,  2392.90000
    241.87,  2783.40000,  2367.20000
    242.36,  2797.10000,  2360.20000
    242.85,  2838.50000,  2347.80000
    243.33,  2825.30000,  2339.00000
    243.82,  2795.50000,  2345.90000
    244.30,  2769.40000,  2344.60000
    244.79,  2777.50000,  2340.80000
    245.28,  2769.30000,  2335.70000
    245.76,  2769.40000,  2325.10000
    246.25,  2760.00000,  2303.00000
    246.74,  2777.00000,  2293.70000
    247.22,  2801.10000,  2270.60000
    247.71,  2792.90000,  2265.80000
    248.19,  2786.00000,  2268.80000
    248.68,  2783.50000,  2272.40000
    249.16,  2751.40000,  2269.80000
    249.65,  2782.20000,  2265.20000
    250.14,  2799.40000,  2252.20000
    250.62,  2770.80000,  2257.50000
    251.11,  2744.20000,  2265.60000
    251.59,  2728.00000,  2258.90000
    252.08,  2722.70000,  2242.00000
    252.57,  2744.60000,  2240.10000
    253.05,  2756.00000,  2233.30000
    253.54,  2790.70000,  2243.80000
    254.02,  2811.20000,  2250.90000
    254.51,  2812.10000,  2244.10000
    254.99,  2818.90000,  2217.20000
    255.48,  2785.20000,  2220.70000
    255.96,  2755.30000,  2213.60000
    256.45,  2780.70000,  2220.80000
    256.94,  2785.40000,  2221.10000
    257.42,  2778.20000,  2222.40000
    257.91,  2792.30000,  2200.30000
    258.39,  2787.40000,  2196.50000
    258.88,  2772.80000,  2193.20000
    259.36,  2790.10000,  2196.50000
    259.85,  2787.90000,  2198.10000
    260.33,  2800.30000,  2205.70000
    260.82,  2819.00000,  2208.20000
    261.30,  2823.60000,  2219.50000
    261.79,  2796.00000,  2219.50000
    262.27,  2774.30000,  2211.10000
    262.76,  2761.60000,  2206.30000
    263.24,  2765.10000,  2203.30000
    263.73,  2792.30000,  2204.50000
    264.22,  2788.80000,  2217.40000
    264.70,  2852.30000,  2223.00000
    265.19,  2874.20000,  2230.40000
    265.67,  2871.10000,  2241.20000
    266.16,  2843.80000,  2245.50000
    266.64,  2825.60000,  2240.20000
    267.13,  2763.60000,  2247.60000
    267.61,  2776.20000,  2240.30000
    268.10,  2789.60000,  2242.70000
    268.58,  2784.20000,  2247.70000
    269.06,  2784.10000,  2249.40000
    269.55,  2805.40000,  2251.00000
    270.03,  2813.40000,  2266.40000
    270.52,  2815.60000,  2268.40000
    271.00,  2826.60000,  2265.60000
    271.49,  2819.10000,  2267.10000
    271.97,  2816.10000,  2268.30000
    272.46,  2820.50000,  2276.90000
    272.94,  2823.40000,  2289.20000
    273.43,  2815.10000,  2301.10000
    273.91,  2792.00000,  2298.50000
    274.40,  2779.70000,  2294.80000
    274.88,  2765.90000,  2294.60000
    275.37,  2766.20000,  2300.20000
    275.85,  2769.70000,  2301.80000
    276.33,  2773.00000,  2317.90000
    276.82,  2783.50000,  2334.00000
    277.30,  2793.40000,  2336.70000
    277.79,  2784.40000,  2350.90000
    278.27,  2792.70000,  2358.30000
    278.76,  2805.80000,  2351.00000
    279.24,  2812.30000,  2348.60000
    279.73,  2806.90000,  2347.30000
    280.21,  2799.90000,  2337.30000
    280.69,  2777.40000,  2348.40000
    281.18,  2779.80000,  2347.10000
    281.66,  2800.00000,  2339.40000
    282.15,  2838.60000,  2334.50000
    282.63,  2836.30000,  2326.40000
    283.11,  2829.00000,  2322.10000
    283.60,  2825.00000,  2326.40000
    284.08,  2831.40000,  2320.90000
    284.57,  2804.80000,  2314.70000
    285.05,  2803.30000,  2307.20000
    285.53,  2784.80000,  2295.10000
    286.02,  2758.80000,  2273.90000
    286.50,  2779.60000,  2263.90000
    286.99,  2800.10000,  2260.20000
    287.47,  2785.30000,  2263.40000
    287.95,  2779.20000,  2253.50000
    288.44,  2769.00000,  2256.00000
    288.92,  2766.30000,  2235.60000
    289.41,  2779.60000,  2230.10000
    289.89,  2806.90000,  2215.00000
    290.37,  2807.30000,  2206.50000
    290.86,  2832.10000,  2191.00000
    291.34,  2797.70000,  2181.10000
    291.82,  2789.30000,  2155.10000
    292.31,  2766.50000,  2146.60000
    292.79,  2784.80000,  2139.40000
    293.28,  2783.00000,  2137.10000
    293.76,  2795.40000,  2140.50000
    294.24,  2794.20000,  2131.20000
    294.73,  2814.20000,  2096.00000
    295.21,  2816.40000,  2073.40000
    295.69,  2824.00000,  2067.40000
    296.18,  2795.70000,  2069.60000
    296.66,  2751.60000,  2075.00000
    297.14,  2753.30000,  2061.70000
    297.63,  2765.30000,  2036.90000
    298.11,  2782.60000,  2017.40000
    298.59,  2817.10000,  1995.00000
    299.08,  2825.80000,  1975.80000
    299.56,  2823.30000,  1962.70000
    300.04,  2845.00000,  1943.70000
    300.53,  2847.00000,  1938.70000
    301.01,  2843.30000,  1934.50000
    301.49,  2838.10000,  1921.30000
    301.98,  2812.70000,  1896.80000
    302.46,  2786.50000,  1882.60000
    302.94,  2784.20000,  1867.00000
    303.42,  2776.00000,  1867.80000
    303.91,  2755.50000,  1872.70000
    304.39,  2742.40000,  1873.10000
    304.87,  2752.20000,  1853.60000
    305.36,  2771.90000,  1837.40000
    305.84,  2805.60000,  1812.60000
    306.32,  2839.00000,  1804.60000
    306.81,  2825.20000,  1802.50000
    307.29,  2806.70000,  1794.40000
    307.77,  2798.80000,  1775.60000
    308.25,  2798.10000,  1764.50000
    308.74,  2814.10000,  1751.40000
    309.22,  2811.40000,  1747.80000
    309.70,  2795.80000,  1746.50000
    310.18,  2781.00000,  1739.90000
    310.67,  2786.50000,  1729.20000
    311.15,  2795.10000,  1721.50000
    311.63,  2808.90000,  1715.70000
    312.12,  2818.50000,  1710.40000
    312.60,  2795.30000,  1699.10000
    313.08,  2772.70000,  1695.90000
    313.56,  2763.90000,  1689.00000
    314.05,  2755.50000,  1689.00000
    314.53,  2774.10000,  1684.20000
    315.01,  2835.30000,  1679.50000
    315.49,  2840.00000,  1660.80000
    315.98,  2840.60000,  1659.50000
    316.46,  2812.80000,  1651.40000
    316.94,  2768.90000,  1647.40000
    317.42,  2749.50000,  1642.40000
    317.90,  2757.80000,  1638.70000
    318.39,  2740.80000,  1631.90000
    318.87,  2787.00000,  1636.80000
    319.35,  2813.30000,  1628.00000
    319.83,  2823.20000,  1626.30000
    320.32,  2839.40000,  1623.00000
    320.80,  2852.50000,  1616.30000
    321.28,  2809.90000,  1600.00000
    321.76,  2843.10000,  1594.70000
    322.24,  2846.40000,  1581.00000
    322.73,  2852.70000,  1593.40000
    323.21,  2855.20000,  1598.60000
    323.69,  2856.10000,  1609.10000
    324.17,  2798.70000,  1607.10000
    324.65,  2771.30000,  1603.50000
    325.14,  2772.50000,  1596.20000
    325.62,  2781.50000,  1597.50000
    326.10,  2831.50000,  1598.70000
    326.58,  2855.80000,  1597.20000
    327.06,  2814.20000,  1602.80000
    327.55,  2831.00000,  1601.30000
    328.03,  2855.60000,  1596.30000
    328.51,  2860.90000,  1586.40000
    328.99,  2879.10000,  1585.30000
    329.47,  2874.80000,  1574.90000
    329.95,  2802.80000,  1574.90000
    330.44,  2806.00000,  1577.30000
    330.92,  2777.00000,  1569.30000
    331.40,  2755.30000,  1564.30000
    331.88,  2744.30000,  1564.70000
    332.36,  2764.80000,  1556.00000
    332.84,  2796.80000,  1543.80000
    333.33,  2839.50000,  1539.00000
    333.81,  2844.00000,  1530.30000
    334.29,  2845.00000,  1537.60000
    334.77,  2836.40000,  1548.70000
    335.25,  2821.90000,  1544.60000
    335.73,  2838.40000,  1533.80000
    336.21,  2831.00000,  1522.30000
    336.69,  2813.30000,  1512.40000
    337.18,  2801.70000,  1518.80000
    337.66,  2779.70000,  1528.90000
    338.14,  2758.10000,  1532.40000
    338.62,  2752.60000,  1534.80000
    339.10,  2779.50000,  1523.70000
    339.58,  2817.10000,  1521.50000
    340.06,  2832.30000,  1523.70000
    340.54,  2841.50000,  1524.00000
    341.03,  2831.00000,  1513.90000
    341.51,  2798.00000,  1508.00000
    341.99,  2798.90000,  1495.50000
    342.47,  2807.60000,  1486.50000
    342.95,  2806.90000,  1484.20000
    343.43,  2810.50000,  1492.00000
    343.91,  2812.90000,  1484.60000
    344.39,  2789.20000,  1488.30000
    344.87,  2767.70000,  1487.40000
    345.35,  2781.20000,  1478.40000
    345.84,  2791.70000,  1476.30000
    346.32,  2836.90000,  1476.40000
    346.80,  2852.00000,  1476.30000
    347.28,  2853.80000,  1472.60000
    347.76,  2824.90000,  1475.50000
    348.24,  2824.60000,  1470.30000
    348.72,  2844.00000,  1469.60000
    349.20,  2868.00000,  1467.90000
    349.68,  2838.80000,  1472.80000
    350.16,  2809.50000,  1469.70000
    350.64,  2767.90000,  1472.80000
    351.12,  2759.60000,  1474.40000
    351.60,  2815.80000,  1477.10000
    352.08,  2866.00000,  1479.10000
    352.56,  2882.30000,  1478.30000
    353.04,  2876.50000,  1477.60000
    353.53,  2851.60000,  1471.50000
    354.01,  2821.70000,  1468.40000
    354.49,  2836.50000,  1469.20000
    354.97,  2842.70000,  1467.30000
    355.45,  2842.80000,  1474.60000
    355.93,  2818.20000,  1483.60000
    356.41,  2822.90000,  1488.20000
    356.89,  2797.60000,  1483.40000
    357.37,  2806.50000,  1472.20000
    357.85,  2788.80000,  1452.60000
    358.33,  2786.60000,  1447.80000
    358.81,  2763.20000,  1459.60000
    359.29,  2775.90000,  1476.50000
    359.77,  2794.20000,  1481.90000
    360.25,  2816.00000,  1485.50000
    360.73,  2816.90000,  1475.10000
    361.21,  2803.40000,  1474.30000
    361.69,  2807.10000,  1475.60000
    362.17,  2808.00000,  1476.20000
    362.65,  2822.10000,  1477.30000
    363.13,  2838.60000,  1473.50000
    363.61,  2851.70000,  1464.90000
    364.09,  2821.80000,  1464.30000
    364.57,  2816.60000,  1460.60000
    365.05,  2805.80000,  1462.30000
    365.53,  2777.30000,  1471.50000
    366.01,  2798.80000,  1470.60000
    366.49,  2838.40000,  1474.50000
    366.97,  2808.20000,  1473.80000
    367.45,  2821.60000,  1475.40000
    367.93,  2846.80000,  1469.00000
