2D Measure spectrum data V5.74

<< MEASURE 1 >>
Data count = 2048
Exposure time = 30000 msec
Average = 10
Inspected time = 2020/10/23 12:18

Wave-dcm-1,Dark spec.  ,Spectrum
    108.17,  2269.20000,   805.60000
    108.66,  2279.80000,   800.80000
    109.15,  2294.30000,   788.10000
    109.65,  2320.60000,   771.70000
    110.14,  2328.70000,   758.10000
    110.63,  2332.80000,   746.50000
    111.13,  2352.30000,   732.30000
    111.62,  2339.00000,   723.90000
    112.11,  2352.10000,   715.90000
    112.60,  2369.70000,   712.80000
    113.10,  2366.80000,   714.50000
    113.59,  2385.90000,   716.30000
    114.08,  2405.30000,   705.00000
    114.58,  2394.80000,   701.20000
    115.07,  2431.90000,   700.20000
    115.56,  2454.70000,   689.30000
    116.06,  2460.80000,   684.80000
    116.55,  2469.30000,   679.30000
    117.04,  2454.00000,   681.60000
    117.53,  2428.90000,   692.20000
    118.03,  2448.10000,   702.20000
    118.52,  2447.20000,   715.20000
    119.01,  2446.30000,   726.50000
    119.51,  2545.10000,   722.20000
    120.00,  2641.90000,   711.60000
    120.49,  2681.40000,   703.10000
    120.98,  2675.90000,   696.50000
    121.48,  2578.70000,   718.30000
    121.97,  2472.50000,   738.00000
    122.46,  2463.30000,   756.80000
    122.95,  2498.40000,   769.20000
    123.45,  2528.70000,   787.80000
    123.94,  2532.60000,   808.00000
    124.43,  2548.90000,   826.40000
    124.92,  2581.00000,   824.30000
    125.42,  2576.60000,   833.30000
    125.91,  2595.20000,   841.30000
    126.40,  2585.50000,   854.40000
    126.89,  2558.70000,   878.80000
    127.39,  2552.40000,   886.30000
    127.88,  2553.20000,   891.00000
    128.37,  2546.40000,   909.50000
    128.86,  2567.40000,   912.90000
    129.35,  2562.30000,   919.30000
    129.85,  2566.70000,   933.50000
    130.34,  2567.00000,   935.60000
    130.83,  2575.40000,   940.60000
    131.32,  2578.00000,   957.70000
    131.81,  2582.20000,   959.70000
    132.31,  2572.80000,   975.10000
    132.80,  2565.40000,   996.60000
    133.29,  2557.40000,   996.20000
    133.78,  2571.00000,   997.20000
    134.27,  2588.50000,  1002.90000
    134.77,  2601.60000,  1011.20000
    135.26,  2620.30000,  1027.70000
    135.75,  2607.90000,  1044.80000
    136.24,  2620.10000,  1038.60000
    136.73,  2609.80000,  1037.00000
    137.23,  2626.60000,  1040.90000
    137.72,  2623.70000,  1060.90000
    138.21,  2626.50000,  1073.40000
    138.70,  2613.90000,  1081.20000
    139.19,  2646.00000,  1083.30000
    139.68,  2640.40000,  1077.90000
    140.18,  2647.20000,  1077.40000
    140.67,  2649.40000,  1098.40000
    141.16,  2652.90000,  1105.70000
    141.65,  2646.40000,  1109.10000
    142.14,  2651.30000,  1118.00000
    142.63,  2667.50000,  1127.10000
    143.13,  2672.00000,  1137.50000
    143.62,  2696.00000,  1162.90000
    144.11,  2695.30000,  1172.00000
    144.60,  2660.20000,  1184.50000
    145.09,  2649.30000,  1196.60000
    145.58,  2694.80000,  1214.80000
    146.07,  2715.70000,  1228.80000
    146.56,  2722.90000,  1246.10000
    147.06,  2711.50000,  1261.80000
    147.55,  2675.10000,  1279.90000
    148.04,  2639.10000,  1291.30000
    148.53,  2673.00000,  1302.80000
    149.02,  2665.20000,  1312.30000
    149.51,  2740.00000,  1323.70000
    150.00,  2787.90000,  1347.90000
    150.49,  2805.80000,  1368.50000
    150.99,  2801.80000,  1385.80000
    151.48,  2773.00000,  1412.50000
    151.97,  2698.70000,  1430.40000
    152.46,  2703.70000,  1453.30000
    152.95,  2676.60000,  1494.20000
    153.44,  2677.10000,  1527.00000
    153.93,  2701.00000,  1561.10000
    154.42,  2711.70000,  1603.10000
    154.91,  2698.10000,  1623.50000
    155.40,  2685.40000,  1641.70000
    155.89,  2668.00000,  1659.70000
    156.39,  2682.10000,  1670.80000
    156.88,  2668.80000,  1676.50000
    157.37,  2678.30000,  1693.90000
    157.86,  2686.70000,  1715.80000
    158.35,  2690.80000,  1747.40000
    158.84,  2706.30000,  1772.20000
    159.33,  2746.60000,  1801.50000
    159.82,  2756.70000,  1824.50000
    160.31,  2775.60000,  1855.40000
    160.80,  2803.60000,  1892.00000
    161.29,  2759.50000,  1927.20000
    161.78,  2725.60000,  1950.80000
    162.27,  2695.30000,  1972.10000
    162.76,  2696.50000,  1983.10000
    163.25,  2710.20000,  1994.20000
    163.74,  2746.40000,  2004.60000
    164.23,  2751.60000,  2020.10000
    164.72,  2760.40000,  2048.20000
    165.21,  2727.30000,  2075.80000
    165.70,  2713.90000,  2102.50000
    166.20,  2746.40000,  2127.30000
    166.69,  2777.90000,  2147.70000
    167.18,  2797.80000,  2161.20000
    167.67,  2800.10000,  2179.10000
    168.16,  2774.00000,  2191.80000
    168.65,  2730.40000,  2200.90000
    169.14,  2745.80000,  2225.90000
    169.63,  2739.20000,  2245.10000
    170.12,  2733.20000,  2247.20000
    170.61,  2734.10000,  2249.30000
    171.10,  2788.60000,  2244.60000
    171.59,  2788.30000,  2229.70000
    172.08,  2791.10000,  2235.20000
    172.57,  2785.60000,  2228.70000
    173.06,  2782.50000,  2217.50000
    173.55,  2767.50000,  2212.60000
    174.04,  2754.00000,  2212.50000
    174.53,  2748.50000,  2203.00000
    175.02,  2744.10000,  2213.00000
    175.50,  2774.40000,  2226.00000
    175.99,  2806.20000,  2231.30000
    176.48,  2832.70000,  2232.10000
    176.97,  2806.70000,  2226.70000
    177.46,  2808.00000,  2213.20000
    177.95,  2778.20000,  2217.90000
    178.44,  2761.80000,  2233.70000
    178.93,  2744.40000,  2234.50000
    179.42,  2769.60000,  2224.80000
    179.91,  2781.90000,  2210.70000
    180.40,  2789.20000,  2204.80000
    180.89,  2795.40000,  2203.30000
    181.38,  2784.30000,  2213.20000
    181.87,  2780.50000,  2215.10000
    182.36,  2774.10000,  2220.50000
    182.85,  2743.60000,  2232.10000
    183.34,  2755.00000,  2235.80000
    183.83,  2767.40000,  2233.10000
    184.32,  2769.40000,  2235.90000
    184.81,  2818.90000,  2228.90000
    185.29,  2812.80000,  2227.10000
    185.78,  2782.40000,  2222.70000
    186.27,  2789.20000,  2214.70000
    186.76,  2780.00000,  2207.80000
    187.25,  2761.20000,  2200.80000
    187.74,  2826.30000,  2200.10000
    188.23,  2848.30000,  2193.70000
    188.72,  2865.70000,  2180.00000
    189.21,  2854.10000,  2176.70000
    189.70,  2832.90000,  2173.50000
    190.19,  2800.40000,  2179.70000
    190.67,  2789.60000,  2189.40000
    191.16,  2786.80000,  2194.90000
    191.65,  2788.20000,  2199.50000
    192.14,  2772.30000,  2211.70000
    192.63,  2793.80000,  2217.40000
    193.12,  2804.90000,  2219.50000
    193.61,  2793.90000,  2212.70000
    194.10,  2804.40000,  2211.00000
    194.59,  2801.00000,  2200.80000
    195.07,  2794.70000,  2207.00000
    195.56,  2809.60000,  2207.50000
    196.05,  2796.40000,  2208.10000
    196.54,  2788.20000,  2203.30000
    197.03,  2803.10000,  2212.80000
    197.52,  2838.40000,  2215.60000
    198.01,  2849.60000,  2212.90000
    198.49,  2854.90000,  2206.60000
    198.98,  2842.40000,  2202.10000
    199.47,  2806.40000,  2184.60000
    199.96,  2791.90000,  2192.80000
    200.45,  2798.20000,  2196.40000
    200.94,  2781.40000,  2194.80000
    201.43,  2783.30000,  2183.00000
    201.91,  2777.90000,  2175.50000
    202.40,  2771.30000,  2159.40000
    202.89,  2777.90000,  2154.30000
    203.38,  2799.40000,  2142.80000
    203.87,  2801.50000,  2150.90000
    204.36,  2788.40000,  2149.60000
    204.84,  2786.10000,  2165.40000
    205.33,  2798.80000,  2173.00000
    205.82,  2810.20000,  2177.20000
    206.31,  2801.50000,  2189.90000
    206.80,  2799.30000,  2206.20000
    207.28,  2810.10000,  2206.80000
    207.77,  2820.20000,  2203.20000
    208.26,  2838.20000,  2187.80000
    208.75,  2845.20000,  2169.30000
    209.24,  2820.70000,  2171.90000
    209.72,  2822.20000,  2180.10000
    210.21,  2835.90000,  2180.40000
    210.70,  2813.40000,  2182.50000
    211.19,  2834.10000,  2179.60000
    211.68,  2843.40000,  2184.70000
    212.16,  2851.80000,  2187.70000
    212.65,  2852.70000,  2208.20000
    213.14,  2840.70000,  2217.40000
    213.63,  2828.10000,  2222.60000
    214.12,  2813.50000,  2220.90000
    214.60,  2823.40000,  2231.60000
    215.09,  2838.30000,  2239.90000
    215.58,  2835.50000,  2259.80000
    216.07,  2823.90000,  2283.60000
    216.55,  2825.40000,  2286.80000
    217.04,  2765.90000,  2292.20000
    217.53,  2764.40000,  2304.30000
    218.02,  2758.20000,  2328.00000
    218.50,  2780.70000,  2322.30000
    218.99,  2816.10000,  2330.70000
    219.48,  2847.00000,  2349.10000
    219.97,  2815.70000,  2380.50000
    220.45,  2815.20000,  2419.10000
    220.94,  2789.90000,  2476.60000
    221.43,  2803.30000,  2496.20000
    221.92,  2826.30000,  2521.10000
    222.40,  2827.50000,  2549.20000
    222.89,  2822.70000,  2565.90000
    223.38,  2848.30000,  2582.90000
    223.86,  2868.50000,  2604.80000
    224.35,  2892.50000,  2634.60000
    224.84,  2886.80000,  2674.70000
    225.33,  2872.50000,  2697.10000
    225.81,  2838.80000,  2716.60000
    226.30,  2824.50000,  2729.30000
    226.79,  2822.00000,  2733.50000
    227.27,  2814.70000,  2746.20000
    227.76,  2816.80000,  2753.50000
    228.25,  2845.20000,  2750.80000
    228.74,  2856.80000,  2739.60000
    229.22,  2868.30000,  2727.30000
    229.71,  2854.80000,  2717.60000
    230.20,  2834.60000,  2704.50000
    230.68,  2831.50000,  2677.60000
    231.17,  2821.80000,  2644.00000
    231.66,  2801.80000,  2604.00000
    232.14,  2794.50000,  2580.80000
    232.63,  2789.90000,  2556.50000
    233.12,  2808.30000,  2537.70000
    233.60,  2829.80000,  2506.00000
    234.09,  2810.20000,  2472.70000
    234.58,  2802.20000,  2417.40000
    235.06,  2802.00000,  2383.80000
    235.55,  2802.20000,  2345.30000
    236.04,  2795.50000,  2326.70000
    236.52,  2808.90000,  2301.90000
    237.01,  2798.10000,  2274.90000
    237.50,  2834.70000,  2231.10000
    237.98,  2832.00000,  2210.90000
    238.47,  2881.20000,  2197.80000
    238.96,  2883.50000,  2186.80000
    239.44,  2874.20000,  2173.20000
    239.93,  2870.10000,  2155.60000
    240.41,  2821.40000,  2149.70000
    240.90,  2762.80000,  2142.40000
    241.39,  2787.80000,  2140.10000
    241.87,  2828.30000,  2120.90000
    242.36,  2849.40000,  2108.90000
    242.85,  2892.00000,  2097.40000
    243.33,  2878.70000,  2097.30000
    243.82,  2852.90000,  2089.00000
    244.30,  2830.60000,  2076.30000
    244.79,  2831.70000,  2067.80000
    245.28,  2813.30000,  2055.10000
    245.76,  2817.10000,  2047.10000
    246.25,  2808.70000,  2057.20000
    246.74,  2825.50000,  2059.80000
    247.22,  2851.40000,  2059.30000
    247.71,  2845.70000,  2068.30000
    248.19,  2841.20000,  2055.20000
    248.68,  2839.50000,  2056.80000
    249.16,  2810.00000,  2061.90000
    249.65,  2834.90000,  2056.90000
    250.14,  2846.80000,  2051.80000
    250.62,  2821.80000,  2055.60000
    251.11,  2796.60000,  2057.40000
    251.59,  2769.70000,  2067.20000
    252.08,  2758.40000,  2062.50000
    252.57,  2779.50000,  2051.20000
    253.05,  2799.30000,  2028.80000
    253.54,  2839.80000,  2025.30000
    254.02,  2864.80000,  2026.20000
    254.51,  2866.60000,  2031.20000
    254.99,  2859.60000,  2032.70000
    255.48,  2826.80000,  2030.40000
    255.96,  2807.50000,  2014.60000
    256.45,  2829.60000,  2006.40000
    256.94,  2844.10000,  1993.80000
    257.42,  2840.60000,  1997.20000
    257.91,  2846.80000,  2004.70000
    258.39,  2836.30000,  2009.00000
    258.88,  2824.30000,  2020.50000
    259.36,  2834.80000,  2027.90000
    259.85,  2839.80000,  2022.70000
    260.33,  2851.50000,  2023.80000
    260.82,  2872.10000,  2016.40000
    261.30,  2875.00000,  2014.40000
    261.79,  2845.60000,  2018.40000
    262.27,  2815.00000,  2023.90000
    262.76,  2799.50000,  2016.30000
    263.24,  2800.00000,  2014.60000
    263.73,  2822.70000,  2020.50000
    264.22,  2832.40000,  2025.20000
    264.70,  2897.90000,  2022.20000
    265.19,  2917.60000,  2023.70000
    265.67,  2922.10000,  2020.10000
    266.16,  2896.70000,  2019.10000
    266.64,  2866.10000,  2030.80000
    267.13,  2808.20000,  2027.60000
    267.61,  2812.90000,  2022.50000
    268.10,  2825.80000,  2015.70000
    268.58,  2836.40000,  2012.90000
    269.06,  2839.90000,  2018.80000
    269.55,  2858.70000,  2029.40000
    270.03,  2862.80000,  2036.10000
    270.52,  2857.20000,  2046.00000
    271.00,  2861.30000,  2056.60000
    271.49,  2858.00000,  2066.30000
    271.97,  2851.60000,  2079.90000
    272.46,  2865.00000,  2080.50000
    272.94,  2867.40000,  2084.70000
    273.43,  2861.00000,  2094.50000
    273.91,  2831.90000,  2108.00000
    274.40,  2822.60000,  2112.80000
    274.88,  2811.60000,  2124.10000
    275.37,  2819.90000,  2123.00000
    275.85,  2820.40000,  2136.70000
    276.33,  2820.20000,  2150.00000
    276.82,  2827.30000,  2164.50000
    277.30,  2837.50000,  2173.30000
    277.79,  2832.20000,  2193.10000
    278.27,  2848.30000,  2198.20000
    278.76,  2858.90000,  2214.50000
    279.24,  2857.30000,  2227.70000
    279.73,  2852.30000,  2243.10000
    280.21,  2842.80000,  2250.40000
    280.69,  2821.10000,  2263.60000
    281.18,  2828.50000,  2267.80000
    281.66,  2847.30000,  2271.20000
    282.15,  2880.00000,  2285.50000
    282.63,  2873.20000,  2292.40000
    283.11,  2871.40000,  2286.30000
    283.60,  2867.70000,  2295.00000
    284.08,  2876.00000,  2305.30000
    284.57,  2853.80000,  2321.90000
    285.05,  2851.50000,  2340.40000
    285.53,  2830.60000,  2345.10000
    286.02,  2811.10000,  2354.70000
    286.50,  2828.10000,  2370.40000
    286.99,  2845.20000,  2378.30000
    287.47,  2822.30000,  2396.50000
    287.95,  2807.90000,  2396.30000
    288.44,  2803.60000,  2377.70000
    288.92,  2808.30000,  2361.10000
    289.41,  2831.30000,  2347.00000
    289.89,  2862.20000,  2331.60000
    290.37,  2866.40000,  2336.20000
    290.86,  2882.20000,  2349.00000
    291.34,  2851.70000,  2349.80000
    291.82,  2832.90000,  2353.00000
    292.31,  2809.60000,  2346.60000
    292.79,  2818.60000,  2330.60000
    293.28,  2815.70000,  2320.60000
    293.76,  2833.00000,  2314.40000
    294.24,  2836.60000,  2303.60000
    294.73,  2852.60000,  2295.80000
    295.21,  2861.50000,  2282.60000
    295.69,  2867.20000,  2268.50000
    296.18,  2839.40000,  2261.60000
    296.66,  2806.70000,  2260.80000
    297.14,  2801.50000,  2252.40000
    297.63,  2814.00000,  2237.40000
    298.11,  2836.20000,  2220.90000
    298.59,  2866.10000,  2205.70000
    299.08,  2877.10000,  2189.50000
    299.56,  2880.20000,  2175.30000
    300.04,  2893.70000,  2158.40000
    300.53,  2896.50000,  2144.40000
    301.01,  2893.70000,  2123.30000
    301.49,  2878.60000,  2120.50000
    301.98,  2846.00000,  2107.90000
    302.46,  2828.20000,  2087.80000
    302.94,  2829.40000,  2077.90000
    303.42,  2830.70000,  2065.10000
    303.91,  2815.70000,  2045.60000
    304.39,  2791.30000,  2050.80000
    304.87,  2790.00000,  2042.10000
    305.36,  2808.40000,  2035.00000
    305.84,  2845.90000,  2024.80000
    306.32,  2887.50000,  2000.20000
    306.81,  2876.90000,  1971.50000
    307.29,  2854.20000,  1955.60000
    307.77,  2848.70000,  1941.20000
    308.25,  2845.90000,  1942.40000
    308.74,  2856.80000,  1940.90000
    309.22,  2852.90000,  1937.40000
    309.70,  2832.90000,  1928.30000
    310.18,  2820.70000,  1914.00000
    310.67,  2833.30000,  1901.10000
    311.15,  2855.00000,  1892.10000
    311.63,  2874.70000,  1884.50000
    312.12,  2877.00000,  1880.90000
    312.60,  2845.60000,  1875.50000
    313.08,  2822.10000,  1856.50000
    313.56,  2813.10000,  1841.00000
    314.05,  2813.70000,  1833.70000
    314.53,  2844.10000,  1825.50000
    315.01,  2892.90000,  1823.90000
    315.49,  2883.00000,  1835.60000
    315.98,  2883.80000,  1827.00000
    316.46,  2855.50000,  1821.30000
    316.94,  2810.90000,  1824.50000
    317.42,  2804.10000,  1816.60000
    317.90,  2805.50000,  1807.90000
    318.39,  2789.40000,  1810.00000
    318.87,  2840.30000,  1791.60000
    319.35,  2860.60000,  1783.90000
    319.83,  2866.00000,  1786.00000
    320.32,  2880.90000,  1782.40000
    320.80,  2885.70000,  1769.30000
    321.28,  2855.70000,  1759.50000
    321.76,  2886.80000,  1746.40000
    322.24,  2883.50000,  1748.30000
    322.73,  2887.80000,  1766.90000
    323.21,  2886.70000,  1779.10000
    323.69,  2886.60000,  1778.70000
    324.17,  2838.30000,  1770.10000
    324.65,  2810.60000,  1765.20000
    325.14,  2818.00000,  1754.50000
    325.62,  2832.20000,  1757.70000
    326.10,  2878.30000,  1758.80000
    326.58,  2890.30000,  1761.90000
    327.06,  2854.90000,  1767.40000
    327.55,  2873.70000,  1761.40000
    328.03,  2904.40000,  1751.50000
    328.51,  2916.50000,  1741.90000
    328.99,  2932.70000,  1730.40000
    329.47,  2910.70000,  1729.80000
    329.95,  2837.40000,  1745.30000
    330.44,  2836.90000,  1746.10000
    330.92,  2808.20000,  1747.70000
    331.40,  2794.70000,  1750.40000
    331.88,  2796.70000,  1739.30000
    332.36,  2811.20000,  1734.90000
    332.84,  2834.00000,  1746.80000
    333.33,  2871.70000,  1746.50000
    333.81,  2876.40000,  1738.20000
    334.29,  2881.90000,  1742.10000
    334.77,  2886.90000,  1724.50000
    335.25,  2876.70000,  1711.20000
    335.73,  2890.90000,  1705.30000
    336.21,  2881.90000,  1700.20000
    336.69,  2862.00000,  1701.10000
    337.18,  2841.90000,  1714.70000
    337.66,  2822.60000,  1712.90000
    338.14,  2814.50000,  1699.40000
    338.62,  2812.50000,  1695.80000
    339.10,  2833.40000,  1703.60000
    339.58,  2867.50000,  1715.80000
    340.06,  2876.90000,  1723.60000
    340.54,  2882.60000,  1717.80000
    341.03,  2876.20000,  1715.70000
    341.51,  2846.80000,  1721.50000
    341.99,  2849.70000,  1728.00000
    342.47,  2856.70000,  1725.30000
    342.95,  2849.60000,  1717.20000
    343.43,  2848.70000,  1702.40000
    343.91,  2843.70000,  1695.00000
    344.39,  2819.20000,  1695.20000
    344.87,  2810.10000,  1695.70000
    345.35,  2829.10000,  1690.00000
    345.84,  2843.10000,  1689.50000
    346.32,  2888.50000,  1683.20000
    346.80,  2900.90000,  1674.00000
    347.28,  2888.60000,  1683.00000
    347.76,  2857.70000,  1690.90000
    348.24,  2857.20000,  1692.10000
    348.72,  2876.40000,  1691.50000
    349.20,  2900.20000,  1687.90000
    349.68,  2885.40000,  1680.20000
    350.16,  2858.30000,  1679.30000
    350.64,  2815.80000,  1682.30000
    351.12,  2805.90000,  1683.40000
    351.60,  2856.60000,  1690.80000
    352.08,  2893.60000,  1705.50000
    352.56,  2918.40000,  1706.50000
    353.04,  2917.50000,  1701.40000
    353.53,  2894.70000,  1695.60000
    354.01,  2872.80000,  1679.70000
    354.49,  2879.50000,  1682.20000
    354.97,  2860.90000,  1703.10000
    355.45,  2897.80000,  1666.40000
    355.93,  2938.20000,  1609.40000
    356.41,  2979.50000,  1574.50000
    356.89,  2964.30000,  1568.30000
    357.37,  2928.10000,  1618.30000
    357.85,  2846.60000,  1686.70000
    358.33,  2820.90000,  1704.60000
    358.81,  2811.10000,  1693.50000
    359.29,  2829.70000,  1676.50000
    359.77,  2852.10000,  1670.50000
    360.25,  2868.50000,  1677.80000
    360.73,  2863.10000,  1685.00000
    361.21,  2855.60000,  1683.80000
    361.69,  2860.20000,  1681.40000
    362.17,  2862.80000,  1678.90000
    362.65,  2872.80000,  1684.10000
    363.13,  2872.70000,  1699.70000
    363.61,  2871.00000,  1711.50000
    364.09,  2839.20000,  1713.70000
    364.57,  2833.80000,  1714.80000
    365.05,  2834.90000,  1708.60000
    365.53,  2825.90000,  1696.80000
    366.01,  2848.30000,  1698.60000
    366.49,  2880.70000,  1697.90000
    366.97,  2840.50000,  1706.10000
    367.45,  2848.30000,  1719.80000
    367.93,  2877.10000,  1717.50000
