2D Measure spectrum data V5.74

<< MEASURE 1 >>
Data count = 2048
Exposure time = 30000 msec
Average = 10
Inspected time = 2020/10/23 17:16

Wave-dcm-1,Dark spec.  ,Spectrum
    108.17,  2232.40000,   911.40000
    108.66,  2241.50000,   896.00000
    109.15,  2251.30000,   890.60000
    109.65,  2278.40000,   876.50000
    110.14,  2288.50000,   872.40000
    110.63,  2297.30000,   865.10000
    111.13,  2314.70000,   854.20000
    111.62,  2308.00000,   831.30000
    112.11,  2320.80000,   823.50000
    112.60,  2342.50000,   813.30000
    113.10,  2328.20000,   811.40000
    113.59,  2343.70000,   811.80000
    114.08,  2361.10000,   805.30000
    114.58,  2347.60000,   808.10000
    115.07,  2383.20000,   816.70000
    115.56,  2396.10000,   818.70000
    116.06,  2386.50000,   823.00000
    116.55,  2391.20000,   822.30000
    117.04,  2388.20000,   812.40000
    117.53,  2371.60000,   811.60000
    118.03,  2398.90000,   816.30000
    118.52,  2408.30000,   816.30000
    119.01,  2402.30000,   825.40000
    119.51,  2491.10000,   828.10000
    120.00,  2583.80000,   831.20000
    120.49,  2620.60000,   842.80000
    120.98,  2611.50000,   864.30000
    121.48,  2522.90000,   882.10000
    121.97,  2414.10000,   894.80000
    122.46,  2403.50000,   903.10000
    122.95,  2438.50000,   904.80000
    123.45,  2478.60000,   920.30000
    123.94,  2491.60000,   935.10000
    124.43,  2514.90000,   948.90000
    124.92,  2549.00000,   952.00000
    125.42,  2546.10000,   968.80000
    125.91,  2557.90000,   987.60000
    126.40,  2546.50000,  1008.40000
    126.89,  2515.30000,  1030.30000
    127.39,  2507.30000,  1045.90000
    127.88,  2502.00000,  1062.30000
    128.37,  2500.10000,  1080.00000
    128.86,  2517.80000,  1102.60000
    129.35,  2514.80000,  1122.90000
    129.85,  2519.80000,  1136.80000
    130.34,  2520.30000,  1137.00000
    130.83,  2523.80000,  1135.00000
    131.32,  2532.50000,  1132.70000
    131.81,  2540.20000,  1138.40000
    132.31,  2536.70000,  1154.00000
    132.80,  2533.20000,  1165.70000
    133.29,  2524.20000,  1169.90000
    133.78,  2534.30000,  1166.40000
    134.27,  2552.00000,  1169.70000
    134.77,  2562.10000,  1183.90000
    135.26,  2573.70000,  1209.00000
    135.75,  2562.30000,  1237.00000
    136.24,  2572.60000,  1259.70000
    136.73,  2554.80000,  1269.40000
    137.23,  2573.60000,  1264.60000
    137.72,  2570.40000,  1263.30000
    138.21,  2565.70000,  1270.50000
    138.70,  2558.50000,  1277.80000
    139.19,  2594.70000,  1294.50000
    139.68,  2586.20000,  1298.30000
    140.18,  2597.80000,  1296.70000
    140.67,  2610.10000,  1301.70000
    141.16,  2609.00000,  1316.60000
    141.65,  2594.50000,  1322.20000
    142.14,  2596.30000,  1331.00000
    142.63,  2619.50000,  1332.10000
    143.13,  2616.10000,  1346.50000
    143.62,  2646.50000,  1371.60000
    144.11,  2642.30000,  1396.30000
    144.60,  2600.20000,  1413.00000
    145.09,  2593.70000,  1412.10000
    145.58,  2650.40000,  1422.80000
    146.07,  2667.10000,  1429.80000
    146.56,  2683.00000,  1432.30000
    147.06,  2674.50000,  1439.30000
    147.55,  2645.30000,  1456.00000
    148.04,  2611.90000,  1465.20000
    148.53,  2638.20000,  1494.60000
    149.02,  2607.20000,  1516.60000
    149.51,  2675.50000,  1525.70000
    150.00,  2723.50000,  1543.90000
    150.49,  2747.70000,  1556.10000
    150.99,  2749.60000,  1576.30000
    151.48,  2729.60000,  1602.90000
    151.97,  2650.90000,  1632.10000
    152.46,  2660.00000,  1653.90000
    152.95,  2637.10000,  1688.00000
    153.44,  2634.70000,  1707.80000
    153.93,  2648.80000,  1746.90000
    154.42,  2672.00000,  1778.40000
    154.91,  2662.50000,  1793.90000
    155.40,  2652.10000,  1804.60000
    155.89,  2632.10000,  1820.00000
    156.39,  2649.60000,  1817.00000
    156.88,  2620.90000,  1835.00000
    157.37,  2635.20000,  1843.70000
    157.86,  2643.60000,  1850.20000
    158.35,  2653.80000,  1860.10000
    158.84,  2668.00000,  1885.10000
    159.33,  2714.50000,  1916.20000
    159.82,  2717.90000,  1948.30000
    160.31,  2736.30000,  1973.80000
    160.80,  2769.80000,  1996.40000
    161.29,  2724.70000,  2007.70000
    161.78,  2690.40000,  2027.60000
    162.27,  2659.30000,  2055.90000
    162.76,  2649.20000,  2074.50000
    163.25,  2661.80000,  2092.80000
    163.74,  2690.40000,  2109.20000
    164.23,  2692.90000,  2123.80000
    164.72,  2715.70000,  2138.70000
    165.21,  2694.80000,  2153.80000
    165.70,  2678.60000,  2168.90000
    166.20,  2713.90000,  2177.10000
    166.69,  2737.30000,  2191.50000
    167.18,  2747.90000,  2214.10000
    167.67,  2738.20000,  2249.40000
    168.16,  2710.70000,  2274.00000
    168.65,  2661.90000,  2290.90000
    169.14,  2689.70000,  2281.50000
    169.63,  2696.60000,  2269.90000
    170.12,  2690.50000,  2261.50000
    170.61,  2680.60000,  2263.40000
    171.10,  2737.70000,  2258.80000
    171.59,  2730.50000,  2249.50000
    172.08,  2744.60000,  2242.60000
    172.57,  2742.60000,  2229.50000
    173.06,  2738.40000,  2222.40000
    173.55,  2724.80000,  2210.30000
    174.04,  2714.00000,  2203.70000
    174.53,  2703.20000,  2205.30000
    175.02,  2702.10000,  2217.00000
    175.50,  2729.60000,  2217.00000
    175.99,  2757.80000,  2231.00000
    176.48,  2784.90000,  2241.00000
    176.97,  2757.70000,  2251.50000
    177.46,  2760.00000,  2249.80000
    177.95,  2735.30000,  2243.20000
    178.44,  2723.00000,  2225.40000
    178.93,  2700.00000,  2226.80000
    179.42,  2719.90000,  2226.90000
    179.91,  2727.70000,  2220.50000
    180.40,  2741.40000,  2211.30000
    180.89,  2750.70000,  2208.60000
    181.38,  2742.80000,  2200.20000
    181.87,  2732.70000,  2211.50000
    182.36,  2727.70000,  2228.70000
    182.85,  2700.90000,  2239.80000
    183.34,  2720.10000,  2255.90000
    183.83,  2731.40000,  2249.40000
    184.32,  2730.50000,  2237.40000
    184.81,  2771.80000,  2230.30000
    185.29,  2767.80000,  2214.50000
    185.78,  2733.90000,  2211.30000
    186.27,  2739.40000,  2201.10000
    186.76,  2725.90000,  2187.70000
    187.25,  2696.80000,  2181.50000
    187.74,  2770.70000,  2179.10000
    188.23,  2804.50000,  2157.50000
    188.72,  2830.20000,  2147.90000
    189.21,  2818.30000,  2147.20000
    189.70,  2780.10000,  2159.60000
    190.19,  2739.20000,  2175.20000
    190.67,  2726.10000,  2199.30000
    191.16,  2726.50000,  2208.50000
    191.65,  2733.20000,  2208.70000
    192.14,  2713.60000,  2223.00000
    192.63,  2733.20000,  2226.70000
    193.12,  2750.50000,  2227.70000
    193.61,  2735.90000,  2240.40000
    194.10,  2756.90000,  2248.30000
    194.59,  2753.10000,  2244.50000
    195.07,  2741.50000,  2249.40000
    195.56,  2750.20000,  2242.80000
    196.05,  2734.00000,  2228.20000
    196.54,  2725.20000,  2216.20000
    197.03,  2747.30000,  2212.30000
    197.52,  2793.10000,  2205.20000
    198.01,  2797.90000,  2213.30000
    198.49,  2798.30000,  2221.60000
    198.98,  2788.80000,  2213.50000
    199.47,  2750.90000,  2194.70000
    199.96,  2735.30000,  2186.40000
    200.45,  2751.80000,  2165.00000
    200.94,  2735.00000,  2152.90000
    201.43,  2737.50000,  2155.20000
    201.91,  2730.40000,  2147.20000
    202.40,  2722.20000,  2136.70000
    202.89,  2723.50000,  2129.30000
    203.38,  2742.20000,  2120.10000
    203.87,  2747.40000,  2116.70000
    204.36,  2735.00000,  2120.10000
    204.84,  2734.00000,  2115.90000
    205.33,  2748.60000,  2111.40000
    205.82,  2760.90000,  2104.90000
    206.31,  2756.00000,  2108.40000
    206.80,  2758.40000,  2105.90000
    207.28,  2769.00000,  2108.00000
    207.77,  2781.90000,  2104.00000
    208.26,  2792.40000,  2111.40000
    208.75,  2789.50000,  2115.10000
    209.24,  2764.80000,  2118.90000
    209.72,  2768.70000,  2126.70000
    210.21,  2785.30000,  2121.60000
    210.70,  2766.30000,  2109.40000
    211.19,  2781.00000,  2120.30000
    211.68,  2787.60000,  2125.10000
    212.16,  2788.10000,  2137.90000
    212.65,  2794.20000,  2149.40000
    213.14,  2785.60000,  2143.80000
    213.63,  2769.80000,  2140.50000
    214.12,  2750.30000,  2147.80000
    214.60,  2768.90000,  2151.50000
    215.09,  2785.40000,  2157.70000
    215.58,  2788.80000,  2154.70000
    216.07,  2781.30000,  2160.90000
    216.55,  2785.70000,  2175.10000
    217.04,  2720.90000,  2189.00000
    217.53,  2719.40000,  2200.70000
    218.02,  2719.50000,  2211.80000
    218.50,  2726.20000,  2224.50000
    218.99,  2742.60000,  2243.40000
    219.48,  2776.40000,  2261.20000
    219.97,  2744.70000,  2283.00000
    220.45,  2755.00000,  2294.70000
    220.94,  2752.30000,  2308.10000
    221.43,  2761.50000,  2333.30000
    221.92,  2770.30000,  2365.30000
    222.40,  2772.00000,  2385.50000
    222.89,  2761.10000,  2411.00000
    223.38,  2785.90000,  2427.70000
    223.86,  2803.80000,  2444.50000
    224.35,  2823.70000,  2475.30000
    224.84,  2820.80000,  2506.90000
    225.33,  2807.00000,  2519.10000
    225.81,  2774.40000,  2527.60000
    226.30,  2759.30000,  2537.60000
    226.79,  2752.50000,  2543.60000
    227.27,  2739.50000,  2555.20000
    227.76,  2743.90000,  2567.40000
    228.25,  2776.60000,  2569.70000
    228.74,  2795.10000,  2563.50000
    229.22,  2817.20000,  2562.10000
    229.71,  2812.30000,  2562.60000
    230.20,  2792.00000,  2542.10000
    230.68,  2783.20000,  2517.70000
    231.17,  2772.90000,  2481.50000
    231.66,  2748.60000,  2443.10000
    232.14,  2739.00000,  2424.70000
    232.63,  2732.50000,  2401.80000
    233.12,  2757.60000,  2368.00000
    233.60,  2786.00000,  2334.50000
    234.09,  2764.00000,  2298.40000
    234.58,  2747.10000,  2275.60000
    235.06,  2740.90000,  2259.80000
    235.55,  2739.40000,  2225.90000
    236.04,  2739.60000,  2187.40000
    236.52,  2762.80000,  2154.20000
    237.01,  2744.10000,  2130.50000
    237.50,  2773.90000,  2122.70000
    237.98,  2767.50000,  2105.10000
    238.47,  2826.80000,  2091.80000
    238.96,  2835.40000,  2068.10000
    239.44,  2833.20000,  2042.90000
    239.93,  2832.70000,  2019.10000
    240.41,  2784.70000,  2015.90000
    240.90,  2717.00000,  2003.40000
    241.39,  2744.50000,  2001.80000
    241.87,  2785.30000,  1998.60000
    242.36,  2808.80000,  1987.80000
    242.85,  2855.70000,  1972.50000
    243.33,  2834.70000,  1970.20000
    243.82,  2798.40000,  1965.20000
    244.30,  2768.40000,  1972.50000
    244.79,  2775.10000,  1975.60000
    245.28,  2764.50000,  1971.80000
    245.76,  2768.30000,  1960.70000
    246.25,  2756.90000,  1953.20000
    246.74,  2772.00000,  1953.80000
    247.22,  2796.70000,  1964.20000
    247.71,  2794.80000,  1955.80000
    248.19,  2788.10000,  1946.40000
    248.68,  2790.40000,  1925.50000
    249.16,  2759.50000,  1922.40000
    249.65,  2786.60000,  1931.50000
    250.14,  2795.70000,  1948.10000
    250.62,  2773.40000,  1944.80000
    251.11,  2751.30000,  1943.00000
    251.59,  2740.40000,  1933.50000
    252.08,  2728.90000,  1930.90000
    252.57,  2742.30000,  1931.80000
    253.05,  2742.30000,  1934.50000
    253.54,  2781.00000,  1922.20000
    254.02,  2798.20000,  1925.80000
    254.51,  2816.70000,  1911.50000
    254.99,  2850.30000,  1870.10000
    255.48,  2837.40000,  1846.20000
    255.96,  2810.10000,  1842.30000
    256.45,  2824.70000,  1859.40000
    256.94,  2798.40000,  1889.10000
    257.42,  2776.70000,  1902.50000
    257.91,  2789.60000,  1894.20000
    258.39,  2781.90000,  1892.10000
    258.88,  2763.00000,  1900.70000
    259.36,  2784.00000,  1909.40000
    259.85,  2782.60000,  1905.20000
    260.33,  2790.40000,  1909.50000
    260.82,  2809.30000,  1911.90000
    261.30,  2819.40000,  1900.80000
    261.79,  2796.50000,  1891.50000
    262.27,  2783.20000,  1875.10000
    262.76,  2771.60000,  1871.50000
    263.24,  2765.20000,  1883.10000
    263.73,  2788.20000,  1893.90000
    264.22,  2784.90000,  1899.10000
    264.70,  2851.00000,  1901.20000
    265.19,  2877.80000,  1903.70000
    265.67,  2882.00000,  1892.70000
    266.16,  2853.20000,  1888.70000
    266.64,  2820.30000,  1887.50000
    267.13,  2748.10000,  1901.90000
    267.61,  2752.70000,  1914.60000
    268.10,  2767.80000,  1925.60000
    268.58,  2774.60000,  1912.90000
    269.06,  2773.30000,  1909.10000
    269.55,  2786.50000,  1912.20000
    270.03,  2797.90000,  1915.40000
    270.52,  2793.80000,  1933.30000
    271.00,  2808.50000,  1939.10000
    271.49,  2809.10000,  1934.30000
    271.97,  2803.70000,  1940.80000
    272.46,  2814.20000,  1940.40000
    272.94,  2819.70000,  1939.20000
    273.43,  2808.60000,  1958.80000
    273.91,  2781.80000,  1977.50000
    274.40,  2773.30000,  1981.40000
    274.88,  2762.20000,  1996.00000
    275.37,  2766.30000,  2001.70000
    275.85,  2766.70000,  2003.40000
    276.33,  2764.70000,  2009.90000
    276.82,  2773.50000,  2026.00000
    277.30,  2790.40000,  2030.70000
    277.79,  2789.40000,  2042.60000
    278.27,  2803.10000,  2052.50000
    278.76,  2819.50000,  2052.40000
    279.24,  2815.70000,  2063.50000
    279.73,  2810.10000,  2076.10000
    280.21,  2799.60000,  2083.40000
    280.69,  2772.90000,  2101.00000
    281.18,  2777.50000,  2117.00000
    281.66,  2794.10000,  2137.80000
    282.15,  2823.00000,  2157.60000
    282.63,  2821.40000,  2154.10000
    283.11,  2814.30000,  2149.90000
    283.60,  2817.20000,  2149.00000
    284.08,  2833.80000,  2155.30000
    284.57,  2802.50000,  2178.20000
    285.05,  2795.20000,  2192.80000
    285.53,  2777.70000,  2184.90000
    286.02,  2757.50000,  2180.40000
    286.50,  2782.10000,  2178.50000
    286.99,  2805.60000,  2182.80000
    287.47,  2787.90000,  2189.30000
    287.95,  2777.80000,  2196.70000
    288.44,  2774.90000,  2192.70000
    288.92,  2770.00000,  2196.50000
    289.41,  2779.90000,  2211.10000
    289.89,  2807.60000,  2206.90000
    290.37,  2814.40000,  2198.90000
    290.86,  2835.40000,  2198.20000
    291.34,  2804.10000,  2185.40000
    291.82,  2781.60000,  2188.90000
    292.31,  2760.00000,  2189.70000
    292.79,  2773.70000,  2188.30000
    293.28,  2775.70000,  2189.80000
    293.76,  2790.30000,  2180.80000
    294.24,  2790.90000,  2167.10000
    294.73,  2807.50000,  2152.70000
    295.21,  2813.40000,  2138.30000
    295.69,  2823.10000,  2134.70000
    296.18,  2796.70000,  2129.80000
    296.66,  2759.50000,  2116.10000
    297.14,  2758.00000,  2104.10000
    297.63,  2768.10000,  2090.70000
    298.11,  2784.50000,  2077.20000
    298.59,  2816.30000,  2072.10000
    299.08,  2820.80000,  2058.60000
    299.56,  2821.80000,  2042.20000
    300.04,  2841.70000,  2026.60000
    300.53,  2845.60000,  2018.10000
    301.01,  2846.50000,  1988.60000
    301.49,  2838.80000,  1970.20000
    301.98,  2808.60000,  1954.60000
    302.46,  2789.30000,  1944.90000
    302.94,  2791.80000,  1943.60000
    303.42,  2790.60000,  1939.70000
    303.91,  2772.70000,  1925.80000
    304.39,  2754.80000,  1897.60000
    304.87,  2753.30000,  1874.80000
    305.36,  2777.30000,  1868.10000
    305.84,  2815.30000,  1860.50000
    306.32,  2853.10000,  1855.80000
    306.81,  2832.60000,  1855.10000
    307.29,  2806.20000,  1843.20000
    307.77,  2785.60000,  1830.10000
    308.25,  2780.10000,  1824.30000
    308.74,  2798.70000,  1812.50000
    309.22,  2800.70000,  1806.10000
    309.70,  2786.80000,  1782.00000
    310.18,  2778.00000,  1769.20000
    310.67,  2781.40000,  1762.90000
    311.15,  2795.00000,  1747.00000
    311.63,  2815.20000,  1739.60000
    312.12,  2827.80000,  1725.20000
    312.60,  2801.60000,  1714.40000
    313.08,  2779.00000,  1710.10000
    313.56,  2766.40000,  1712.60000
    314.05,  2759.10000,  1706.90000
    314.53,  2776.30000,  1709.50000
    315.01,  2831.60000,  1706.50000
    315.49,  2826.60000,  1712.40000
    315.98,  2825.00000,  1700.80000
    316.46,  2800.50000,  1689.80000
    316.94,  2763.60000,  1676.10000
    317.42,  2751.10000,  1680.80000
    317.90,  2755.90000,  1683.70000
    318.39,  2731.70000,  1693.40000
    318.87,  2776.20000,  1684.90000
    319.35,  2802.00000,  1665.20000
    319.83,  2817.80000,  1652.50000
    320.32,  2827.90000,  1653.90000
    320.80,  2835.50000,  1653.20000
    321.28,  2788.30000,  1657.30000
    321.76,  2826.90000,  1662.90000
    322.24,  2832.40000,  1639.20000
    322.73,  2851.60000,  1626.40000
    323.21,  2851.80000,  1616.50000
    323.69,  2858.30000,  1615.70000
    324.17,  2805.20000,  1617.70000
    324.65,  2774.50000,  1633.60000
    325.14,  2774.00000,  1645.20000
    325.62,  2777.90000,  1656.20000
    326.10,  2822.00000,  1654.20000
    326.58,  2847.20000,  1637.60000
    327.06,  2814.00000,  1627.60000
    327.55,  2830.30000,  1617.40000
    328.03,  2859.40000,  1621.80000
    328.51,  2859.60000,  1623.90000
    328.99,  2876.00000,  1626.20000
    329.47,  2863.70000,  1620.30000
    329.95,  2794.30000,  1627.90000
    330.44,  2801.50000,  1627.90000
    330.92,  2778.70000,  1623.60000
    331.40,  2759.30000,  1617.10000
    331.88,  2748.60000,  1615.70000
    332.36,  2758.10000,  1616.70000
    332.84,  2777.00000,  1625.20000
    333.33,  2813.90000,  1634.00000
    333.81,  2821.80000,  1633.00000
    334.29,  2830.10000,  1617.50000
    334.77,  2835.30000,  1598.30000
    335.25,  2828.20000,  1584.60000
    335.73,  2841.10000,  1579.80000
    336.21,  2833.60000,  1588.00000
    336.69,  2816.40000,  1590.70000
    337.18,  2808.40000,  1580.90000
    337.66,  2788.70000,  1577.40000
    338.14,  2770.60000,  1575.20000
    338.62,  2763.30000,  1583.70000
    339.10,  2784.00000,  1587.20000
    339.58,  2820.20000,  1603.50000
    340.06,  2834.70000,  1600.00000
    340.54,  2838.50000,  1594.20000
    341.03,  2831.30000,  1578.20000
    341.51,  2800.40000,  1582.40000
    341.99,  2796.90000,  1573.40000
    342.47,  2800.70000,  1586.80000
    342.95,  2796.70000,  1586.00000
    343.43,  2799.80000,  1584.80000
    343.91,  2804.70000,  1577.40000
    344.39,  2780.70000,  1573.00000
    344.87,  2761.30000,  1561.20000
    345.35,  2771.10000,  1557.60000
    345.84,  2781.40000,  1557.90000
    346.32,  2825.00000,  1570.10000
    346.80,  2845.30000,  1576.50000
    347.28,  2840.20000,  1582.60000
    347.76,  2816.80000,  1583.90000
    348.24,  2812.90000,  1576.40000
    348.72,  2831.30000,  1572.90000
    349.20,  2857.20000,  1571.60000
    349.68,  2841.70000,  1563.90000
    350.16,  2806.40000,  1568.80000
    350.64,  2760.50000,  1573.60000
    351.12,  2744.30000,  1572.60000
    351.60,  2799.20000,  1566.50000
    352.08,  2854.10000,  1555.20000
    352.56,  2878.80000,  1541.90000
    353.04,  2871.10000,  1546.40000
    353.53,  2842.50000,  1560.80000
    354.01,  2815.60000,  1576.20000
    354.49,  2831.90000,  1569.00000
    354.97,  2839.70000,  1560.00000
    355.45,  2839.00000,  1548.90000
    355.93,  2816.20000,  1543.20000
    356.41,  2824.60000,  1552.70000
    356.89,  2798.60000,  1565.50000
    357.37,  2804.90000,  1571.00000
    357.85,  2784.60000,  1574.30000
    358.33,  2771.20000,  1576.50000
    358.81,  2753.50000,  1569.60000
    359.29,  2771.40000,  1570.90000
    359.77,  2789.70000,  1564.20000
    360.25,  2813.30000,  1562.80000
    360.73,  2821.30000,  1552.10000
    361.21,  2809.20000,  1553.20000
    361.69,  2813.80000,  1555.20000
    362.17,  2808.90000,  1564.10000
    362.65,  2818.70000,  1564.00000
    363.13,  2823.30000,  1563.60000
    363.61,  2838.20000,  1566.60000
    364.09,  2810.30000,  1566.40000
    364.57,  2801.30000,  1580.40000
    365.05,  2794.40000,  1586.10000
    365.53,  2776.10000,  1583.40000
    366.01,  2793.40000,  1571.20000
    366.49,  2838.20000,  1566.50000
    366.97,  2806.30000,  1557.50000
    367.45,  2815.10000,  1572.60000
    367.93,  2840.60000,  1588.20000
