2D Measure spectrum data V5.74

<< MEASURE 1 >>
Data count = 2048
Exposure time = 30000 msec
Average = 10
Inspected time = 2020/10/19 16:54

Wave-dcm-1,Dark spec.  ,Spectrum
    108.17,  2241.20000,  1857.60000
    108.66,  2246.10000,  1846.40000
    109.15,  2258.40000,  1831.40000
    109.65,  2285.60000,  1796.00000
    110.14,  2292.80000,  1775.90000
    110.63,  2298.60000,  1736.40000
    111.13,  2313.10000,  1715.00000
    111.62,  2298.60000,  1693.80000
    112.11,  2316.10000,  1674.40000
    112.60,  2338.90000,  1657.20000
    113.10,  2328.40000,  1650.90000
    113.59,  2350.10000,  1640.80000
    114.08,  2363.60000,  1661.90000
    114.58,  2350.30000,  1662.90000
    115.07,  2397.80000,  1656.00000
    115.56,  2409.80000,  1648.10000
    116.06,  2401.80000,  1633.80000
    116.55,  2403.70000,  1635.40000
    117.04,  2390.80000,  1651.10000
    117.53,  2372.90000,  1657.90000
    118.03,  2413.10000,  1666.00000
    118.52,  2418.50000,  1673.70000
    119.01,  2412.10000,  1673.10000
    119.51,  2497.90000,  1695.30000
    120.00,  2582.60000,  1723.20000
    120.49,  2620.70000,  1750.40000
    120.98,  2620.50000,  1793.00000
    121.48,  2540.90000,  1830.50000
    121.97,  2441.20000,  1866.70000
    122.46,  2432.60000,  1915.40000
    122.95,  2456.10000,  1975.40000
    123.45,  2492.90000,  2021.30000
    123.94,  2496.40000,  2077.80000
    124.43,  2516.30000,  2120.70000
    124.92,  2544.60000,  2158.30000
    125.42,  2540.10000,  2187.20000
    125.91,  2549.10000,  2232.40000
    126.40,  2542.80000,  2254.60000
    126.89,  2512.90000,  2300.10000
    127.39,  2508.10000,  2334.30000
    127.88,  2507.50000,  2355.00000
    128.37,  2507.40000,  2386.20000
    128.86,  2530.90000,  2424.00000
    129.35,  2530.20000,  2453.30000
    129.85,  2539.10000,  2509.90000
    130.34,  2529.60000,  2548.60000
    130.83,  2528.30000,  2577.20000
    131.32,  2529.10000,  2600.90000
    131.81,  2535.00000,  2609.60000
    132.31,  2535.40000,  2610.30000
    132.80,  2540.70000,  2625.30000
    133.29,  2525.80000,  2622.70000
    133.78,  2533.50000,  2635.30000
    134.27,  2548.50000,  2640.00000
    134.77,  2559.80000,  2654.60000
    135.26,  2583.30000,  2684.90000
    135.75,  2580.20000,  2719.80000
    136.24,  2594.50000,  2743.50000
    136.73,  2576.10000,  2762.70000
    137.23,  2586.20000,  2797.10000
    137.72,  2571.30000,  2835.30000
    138.21,  2566.20000,  2861.40000
    138.70,  2557.30000,  2858.80000
    139.19,  2595.60000,  2855.80000
    139.68,  2586.80000,  2852.80000
    140.18,  2593.40000,  2869.40000
    140.67,  2607.40000,  2891.40000
    141.16,  2613.20000,  2910.00000
    141.65,  2603.70000,  2926.30000
    142.14,  2601.60000,  2953.60000
    142.63,  2619.20000,  2981.40000
    143.13,  2617.30000,  3003.30000
    143.62,  2658.50000,  3033.50000
    144.11,  2659.00000,  3065.70000
    144.60,  2620.90000,  3084.90000
    145.09,  2599.50000,  3097.50000
    145.58,  2651.80000,  3106.80000
    146.07,  2672.80000,  3115.20000
    146.56,  2689.40000,  3152.20000
    147.06,  2677.90000,  3192.30000
    147.55,  2645.20000,  3234.60000
    148.04,  2604.00000,  3272.80000
    148.53,  2635.80000,  3304.10000
    149.02,  2617.20000,  3311.30000
    149.51,  2695.00000,  3327.40000
    150.00,  2748.90000,  3333.10000
    150.49,  2761.70000,  3362.90000
    150.99,  2762.10000,  3396.70000
    151.48,  2735.70000,  3435.50000
    151.97,  2654.60000,  3468.20000
    152.46,  2669.20000,  3499.40000
    152.95,  2648.00000,  3508.60000
    153.44,  2640.40000,  3520.70000
    153.93,  2656.20000,  3532.20000
    154.42,  2674.00000,  3526.00000
    154.91,  2659.90000,  3513.00000
    155.40,  2653.60000,  3507.70000
    155.89,  2635.80000,  3493.40000
    156.39,  2656.60000,  3475.00000
    156.88,  2630.80000,  3473.40000
    157.37,  2635.70000,  3471.70000
    157.86,  2638.10000,  3473.90000
    158.35,  2645.60000,  3491.80000
    158.84,  2667.30000,  3508.10000
    159.33,  2717.00000,  3520.80000
    159.82,  2729.60000,  3531.90000
    160.31,  2740.20000,  3544.00000
    160.80,  2777.60000,  3511.10000
    161.29,  2730.70000,  3560.10000
    161.78,  2702.80000,  3559.10000
    162.27,  2666.00000,  3540.60000
    162.76,  2663.70000,  3495.70000
    163.25,  2665.20000,  3447.10000
    163.74,  2696.10000,  3366.30000
    164.23,  2695.30000,  3379.90000
    164.72,  2716.50000,  3378.30000
    165.21,  2692.70000,  3356.60000
    165.70,  2681.50000,  3345.30000
    166.20,  2713.20000,  3354.10000
    166.69,  2734.80000,  3343.70000
    167.18,  2753.10000,  3310.30000
    167.67,  2747.30000,  3297.00000
    168.16,  2727.70000,  3234.90000
    168.65,  2678.50000,  3189.70000
    169.14,  2708.20000,  3157.50000
    169.63,  2699.80000,  3145.50000
    170.12,  2693.40000,  3122.70000
    170.61,  2681.50000,  3106.60000
    171.10,  2743.10000,  3069.90000
    171.59,  2737.20000,  3043.50000
    172.08,  2752.50000,  3011.20000
    172.57,  2746.90000,  2994.50000
    173.06,  2740.80000,  2982.70000
    173.55,  2731.00000,  2967.10000
    174.04,  2716.40000,  2961.30000
    174.53,  2706.10000,  2954.70000
    175.02,  2698.50000,  2951.00000
    175.50,  2725.50000,  2940.60000
    175.99,  2755.80000,  2924.80000
    176.48,  2786.30000,  2901.90000
    176.97,  2763.60000,  2874.00000
    177.46,  2767.00000,  2845.10000
    177.95,  2733.50000,  2835.90000
    178.44,  2717.00000,  2834.50000
    178.93,  2701.10000,  2842.00000
    179.42,  2721.90000,  2850.00000
    179.91,  2740.70000,  2846.70000
    180.40,  2747.00000,  2847.20000
    180.89,  2752.00000,  2841.60000
    181.38,  2740.20000,  2843.60000
    181.87,  2733.00000,  2858.00000
    182.36,  2734.50000,  2864.70000
    182.85,  2714.10000,  2878.20000
    183.34,  2727.80000,  2884.80000
    183.83,  2738.20000,  2874.90000
    184.32,  2730.30000,  2856.80000
    184.81,  2768.00000,  2838.20000
    185.29,  2765.90000,  2802.20000
    185.78,  2737.70000,  2791.10000
    186.27,  2744.30000,  2787.90000
    186.76,  2734.70000,  2779.50000
    187.25,  2701.50000,  2775.50000
    187.74,  2772.00000,  2781.30000
    188.23,  2809.10000,  2775.70000
    188.72,  2832.60000,  2787.80000
    189.21,  2818.50000,  2808.40000
    189.70,  2786.20000,  2827.30000
    190.19,  2741.70000,  2866.50000
    190.67,  2728.60000,  2893.80000
    191.16,  2735.00000,  2893.80000
    191.65,  2743.60000,  2880.50000
    192.14,  2725.80000,  2883.60000
    192.63,  2754.30000,  2881.90000
    193.12,  2767.80000,  2898.70000
    193.61,  2749.70000,  2904.30000
    194.10,  2764.70000,  2901.10000
    194.59,  2757.20000,  2886.20000
    195.07,  2746.60000,  2883.10000
    195.56,  2767.70000,  2866.40000
    196.05,  2749.60000,  2851.30000
    196.54,  2736.60000,  2826.20000
    197.03,  2757.50000,  2810.80000
    197.52,  2796.20000,  2790.40000
    198.01,  2806.40000,  2770.40000
    198.49,  2807.90000,  2762.00000
    198.98,  2799.50000,  2751.60000
    199.47,  2758.10000,  2727.10000
    199.96,  2749.90000,  2706.10000
    200.45,  2761.60000,  2681.30000
    200.94,  2740.80000,  2658.50000
    201.43,  2748.20000,  2628.90000
    201.91,  2740.10000,  2620.20000
    202.40,  2735.20000,  2601.40000
    202.89,  2736.10000,  2589.60000
    203.38,  2751.00000,  2576.30000
    203.87,  2752.90000,  2565.20000
    204.36,  2749.70000,  2543.40000
    204.84,  2742.10000,  2552.00000
    205.33,  2764.50000,  2554.30000
    205.82,  2770.00000,  2568.30000
    206.31,  2767.40000,  2578.70000
    206.80,  2759.20000,  2594.60000
    207.28,  2766.40000,  2590.10000
    207.77,  2776.50000,  2590.00000
    208.26,  2795.50000,  2577.40000
    208.75,  2795.70000,  2575.40000
    209.24,  2777.10000,  2577.60000
    209.72,  2780.80000,  2596.30000
    210.21,  2795.50000,  2596.80000
    210.70,  2778.00000,  2583.50000
    211.19,  2795.60000,  2580.50000
    211.68,  2799.70000,  2579.20000
    212.16,  2803.60000,  2576.10000
    212.65,  2812.70000,  2588.30000
    213.14,  2800.10000,  2594.00000
    213.63,  2793.80000,  2580.30000
    214.12,  2772.40000,  2595.20000
    214.60,  2780.50000,  2613.50000
    215.09,  2794.10000,  2623.40000
    215.58,  2788.00000,  2634.80000
    216.07,  2778.30000,  2652.00000
    216.55,  2783.80000,  2670.50000
    217.04,  2723.80000,  2680.40000
    217.53,  2720.10000,  2699.40000
    218.02,  2722.00000,  2704.10000
    218.50,  2727.80000,  2707.70000
    218.99,  2748.10000,  2717.10000
    219.48,  2778.40000,  2732.40000
    219.97,  2748.20000,  2737.60000
    220.45,  2757.20000,  2748.20000
    220.94,  2758.10000,  2759.50000
    221.43,  2772.60000,  2776.80000
    221.92,  2801.90000,  2778.30000
    222.40,  2804.40000,  2785.60000
    222.89,  2784.60000,  2791.40000
    223.38,  2798.20000,  2797.70000
    223.86,  2814.50000,  2796.40000
    224.35,  2834.70000,  2792.00000
    224.84,  2842.40000,  2773.70000
    225.33,  2829.90000,  2757.30000
    225.81,  2798.30000,  2732.60000
    226.30,  2781.70000,  2726.20000
    226.79,  2785.70000,  2714.90000
    227.27,  2774.90000,  2703.10000
    227.76,  2773.20000,  2687.20000
    228.25,  2803.00000,  2648.90000
    228.74,  2814.60000,  2599.10000
    229.22,  2837.10000,  2556.90000
    229.71,  2835.10000,  2520.20000
    230.20,  2810.70000,  2487.00000
    230.68,  2797.40000,  2469.80000
    231.17,  2786.60000,  2434.70000
    231.66,  2753.80000,  2415.00000
    232.14,  2748.40000,  2388.00000
    232.63,  2734.90000,  2366.10000
    233.12,  2757.50000,  2335.90000
    233.60,  2782.40000,  2319.80000
    234.09,  2767.10000,  2293.10000
    234.58,  2750.40000,  2285.60000
    235.06,  2748.20000,  2269.90000
    235.55,  2746.80000,  2236.20000
    236.04,  2742.90000,  2199.90000
    236.52,  2760.00000,  2172.00000
    237.01,  2743.60000,  2151.40000
    237.50,  2775.20000,  2147.50000
    237.98,  2766.80000,  2144.20000
    238.47,  2828.30000,  2118.10000
    238.96,  2838.00000,  2095.90000
    239.44,  2836.10000,  2068.50000
    239.93,  2835.50000,  2049.60000
    240.41,  2791.70000,  2046.30000
    240.90,  2715.10000,  2064.00000
    241.39,  2733.50000,  2067.00000
    241.87,  2773.30000,  2071.00000
    242.36,  2794.60000,  2058.30000
    242.85,  2840.10000,  2042.70000
    243.33,  2831.60000,  2020.80000
    243.82,  2799.30000,  2013.10000
    244.30,  2772.00000,  1994.60000
    244.79,  2778.80000,  1993.80000
    245.28,  2769.30000,  1990.40000
    245.76,  2771.80000,  1990.70000
    246.25,  2759.00000,  1983.30000
    246.74,  2774.50000,  1971.30000
    247.22,  2799.20000,  1953.60000
    247.71,  2794.50000,  1948.80000
    248.19,  2790.60000,  1934.30000
    248.68,  2790.90000,  1934.60000
    249.16,  2752.00000,  1941.70000
    249.65,  2783.90000,  1951.60000
    250.14,  2801.40000,  1952.60000
    250.62,  2779.50000,  1957.60000
    251.11,  2756.70000,  1944.80000
    251.59,  2736.30000,  1942.30000
    252.08,  2715.30000,  1943.70000
    252.57,  2732.20000,  1945.00000
    253.05,  2737.00000,  1939.10000
    253.54,  2778.10000,  1928.40000
    254.02,  2810.20000,  1912.60000
    254.51,  2817.10000,  1909.10000
    254.99,  2813.60000,  1912.80000
    255.48,  2787.30000,  1917.90000
    255.96,  2756.00000,  1918.30000
    256.45,  2782.50000,  1910.40000
    256.94,  2787.20000,  1906.90000
    257.42,  2778.70000,  1904.40000
    257.91,  2780.20000,  1913.40000
    258.39,  2781.90000,  1917.80000
    258.88,  2764.40000,  1923.60000
    259.36,  2784.60000,  1920.00000
    259.85,  2780.10000,  1911.80000
    260.33,  2795.10000,  1902.60000
    260.82,  2822.40000,  1885.70000
    261.30,  2840.20000,  1876.20000
    261.79,  2814.20000,  1881.90000
    262.27,  2798.40000,  1877.00000
    262.76,  2779.40000,  1872.90000
    263.24,  2774.10000,  1885.50000
    263.73,  2800.50000,  1884.50000
    264.22,  2791.00000,  1904.60000
    264.70,  2847.50000,  1923.20000
    265.19,  2872.00000,  1927.20000
    265.67,  2875.70000,  1920.10000
    266.16,  2853.00000,  1912.70000
    266.64,  2827.40000,  1907.00000
    267.13,  2758.60000,  1914.20000
    267.61,  2761.80000,  1924.20000
    268.10,  2780.40000,  1935.10000
    268.58,  2786.50000,  1943.20000
    269.06,  2787.30000,  1950.20000
    269.55,  2800.70000,  1957.70000
    270.03,  2810.30000,  1959.40000
    270.52,  2804.90000,  1960.90000
    271.00,  2822.70000,  1959.70000
    271.49,  2823.00000,  1958.10000
    271.97,  2820.30000,  1966.00000
    272.46,  2821.90000,  1978.70000
    272.94,  2818.00000,  1986.70000
    273.43,  2801.30000,  2004.10000
    273.91,  2776.10000,  2010.50000
    274.40,  2770.30000,  2000.10000
    274.88,  2771.00000,  1996.30000
    275.37,  2772.50000,  2007.20000
    275.85,  2773.00000,  2017.50000
    276.33,  2773.60000,  2036.30000
    276.82,  2781.60000,  2043.30000
    277.30,  2792.00000,  2033.60000
    277.79,  2792.40000,  2025.10000
    278.27,  2803.50000,  2027.60000
    278.76,  2820.60000,  2034.00000
    279.24,  2822.00000,  2041.70000
    279.73,  2814.40000,  2046.60000
    280.21,  2795.50000,  2049.10000
    280.69,  2778.60000,  2036.80000
    281.18,  2786.30000,  2035.00000
    281.66,  2806.00000,  2044.00000
    282.15,  2835.40000,  2059.70000
    282.63,  2825.20000,  2059.80000
    283.11,  2812.20000,  2059.30000
    283.60,  2818.40000,  2040.50000
    284.08,  2830.20000,  2023.30000
    284.57,  2805.90000,  2016.60000
    285.05,  2801.60000,  2020.10000
    285.53,  2783.60000,  2009.90000
    286.02,  2756.70000,  2017.40000
    286.50,  2781.80000,  2011.40000
    286.99,  2806.10000,  1997.80000
    287.47,  2788.40000,  2002.70000
    287.95,  2779.50000,  2002.80000
    288.44,  2773.10000,  1996.10000
    288.92,  2764.40000,  1990.90000
    289.41,  2782.00000,  1972.90000
    289.89,  2814.60000,  1947.90000
    290.37,  2812.80000,  1943.60000
    290.86,  2837.10000,  1937.50000
    291.34,  2809.80000,  1916.90000
    291.82,  2792.00000,  1905.30000
    292.31,  2771.10000,  1891.90000
    292.79,  2780.50000,  1884.00000
    293.28,  2771.80000,  1881.50000
    293.76,  2779.80000,  1878.40000
    294.24,  2781.30000,  1858.60000
    294.73,  2799.00000,  1845.30000
    295.21,  2814.50000,  1821.50000
    295.69,  2829.70000,  1805.90000
    296.18,  2808.60000,  1788.90000
    296.66,  2769.60000,  1767.90000
    297.14,  2765.10000,  1755.60000
    297.63,  2771.90000,  1745.80000
    298.11,  2786.80000,  1744.80000
    298.59,  2818.80000,  1742.90000
    299.08,  2821.20000,  1742.80000
    299.56,  2821.70000,  1727.90000
    300.04,  2844.90000,  1710.60000
    300.53,  2851.50000,  1689.90000
    301.01,  2847.30000,  1680.20000
    301.49,  2833.10000,  1678.50000
    301.98,  2797.00000,  1672.00000
    302.46,  2776.60000,  1657.10000
    302.94,  2775.90000,  1647.20000
    303.42,  2778.30000,  1632.90000
    303.91,  2763.20000,  1617.90000
    304.39,  2747.50000,  1610.80000
    304.87,  2761.00000,  1581.20000
    305.36,  2787.30000,  1567.30000
    305.84,  2813.70000,  1568.00000
    306.32,  2843.50000,  1580.00000
    306.81,  2825.00000,  1569.90000
    307.29,  2794.80000,  1563.20000
    307.77,  2786.80000,  1548.70000
    308.25,  2785.00000,  1544.40000
    308.74,  2797.20000,  1545.80000
    309.22,  2797.30000,  1534.60000
    309.70,  2793.90000,  1504.60000
    310.18,  2781.00000,  1487.00000
    310.67,  2792.10000,  1479.50000
    311.15,  2804.90000,  1482.00000
    311.63,  2810.20000,  1495.50000
    312.12,  2813.10000,  1491.80000
    312.60,  2784.90000,  1500.50000
    313.08,  2764.50000,  1487.80000
    313.56,  2758.10000,  1481.80000
    314.05,  2754.00000,  1476.10000
    314.53,  2771.60000,  1463.10000
    315.01,  2831.90000,  1453.70000
    315.49,  2831.60000,  1450.40000
    315.98,  2838.90000,  1439.40000
    316.46,  2810.60000,  1443.40000
    316.94,  2766.90000,  1438.20000
    317.42,  2751.50000,  1425.30000
    317.90,  2762.50000,  1411.80000
    318.39,  2747.20000,  1395.40000
    318.87,  2798.90000,  1389.50000
    319.35,  2822.70000,  1394.40000
    319.83,  2832.30000,  1397.30000
    320.32,  2845.50000,  1398.70000
    320.80,  2851.30000,  1402.60000
    321.28,  2804.80000,  1395.60000
    321.76,  2837.80000,  1394.90000
    322.24,  2833.80000,  1388.50000
    322.73,  2842.30000,  1387.70000
    323.21,  2846.50000,  1387.90000
    323.69,  2848.50000,  1395.40000
    324.17,  2795.50000,  1401.00000
    324.65,  2770.50000,  1401.30000
    325.14,  2776.50000,  1388.70000
    325.62,  2787.20000,  1392.70000
    326.10,  2835.80000,  1388.00000
    326.58,  2852.90000,  1388.50000
    327.06,  2810.20000,  1394.70000
    327.55,  2822.40000,  1393.50000
    328.03,  2847.30000,  1388.40000
    328.51,  2852.60000,  1390.10000
    328.99,  2873.90000,  1380.00000
    329.47,  2869.90000,  1369.40000
    329.95,  2803.10000,  1361.40000
    330.44,  2804.80000,  1368.80000
    330.92,  2774.70000,  1358.80000
    331.40,  2747.50000,  1364.20000
    331.88,  2741.60000,  1360.50000
    332.36,  2758.60000,  1356.70000
    332.84,  2789.30000,  1353.50000
    333.33,  2832.00000,  1358.50000
    333.81,  2839.20000,  1348.60000
    334.29,  2838.90000,  1342.30000
    334.77,  2836.10000,  1328.20000
    335.25,  2820.80000,  1327.20000
    335.73,  2839.00000,  1329.30000
    336.21,  2838.20000,  1327.20000
    336.69,  2821.40000,  1331.10000
    337.18,  2807.60000,  1333.70000
    337.66,  2778.60000,  1329.60000
    338.14,  2758.60000,  1326.40000
    338.62,  2754.50000,  1317.40000
    339.10,  2782.70000,  1315.00000
    339.58,  2825.70000,  1310.20000
    340.06,  2836.10000,  1322.90000
    340.54,  2840.60000,  1316.00000
    341.03,  2827.90000,  1312.30000
    341.51,  2797.70000,  1304.50000
    341.99,  2797.70000,  1301.70000
    342.47,  2806.80000,  1287.60000
    342.95,  2797.70000,  1293.50000
    343.43,  2806.50000,  1286.40000
    343.91,  2808.60000,  1292.10000
    344.39,  2791.00000,  1286.70000
    344.87,  2772.80000,  1280.90000
    345.35,  2777.60000,  1280.80000
    345.84,  2779.80000,  1290.40000
    346.32,  2829.20000,  1286.60000
    346.80,  2853.50000,  1282.10000
    347.28,  2850.10000,  1274.30000
    347.76,  2817.40000,  1277.60000
    348.24,  2810.50000,  1275.90000
    348.72,  2834.10000,  1270.40000
    349.20,  2865.40000,  1265.00000
    349.68,  2856.50000,  1260.40000
    350.16,  2820.10000,  1266.90000
    350.64,  2770.40000,  1279.50000
    351.12,  2756.30000,  1267.10000
    351.60,  2811.30000,  1264.20000
    352.08,  2855.40000,  1263.90000
    352.56,  2873.60000,  1265.60000
    353.04,  2866.40000,  1272.20000
    353.53,  2842.60000,  1275.80000
    354.01,  2822.40000,  1263.00000
    354.49,  2836.00000,  1262.50000
    354.97,  2835.00000,  1256.10000
    355.45,  2833.90000,  1254.70000
    355.93,  2813.80000,  1261.50000
    356.41,  2822.00000,  1272.20000
    356.89,  2811.10000,  1269.50000
    357.37,  2823.30000,  1264.70000
    357.85,  2799.80000,  1267.90000
    358.33,  2792.30000,  1268.70000
    358.81,  2766.30000,  1276.00000
    359.29,  2773.30000,  1279.70000
    359.77,  2794.20000,  1275.00000
    360.25,  2816.80000,  1262.80000
    360.73,  2818.00000,  1256.40000
    361.21,  2810.70000,  1255.60000
    361.69,  2818.60000,  1259.30000
    362.17,  2819.80000,  1261.50000
    362.65,  2832.90000,  1272.30000
    363.13,  2834.00000,  1273.30000
    363.61,  2839.10000,  1268.50000
    364.09,  2806.30000,  1265.50000
    364.57,  2803.40000,  1261.90000
    365.05,  2800.60000,  1264.50000
    365.53,  2789.10000,  1263.20000
    366.01,  2801.50000,  1277.30000
    366.49,  2838.50000,  1280.60000
    366.97,  2804.40000,  1277.60000
    367.45,  2816.80000,  1286.80000
    367.93,  2843.20000,  1290.80000
