2D Measure spectrum data V5.74

<< MEASURE 1 >>
Data count = 2048
Exposure time = 30000 msec
Average = 10
Inspected time = 2020/10/23 14:56

Wave-dcm-1,Dark spec.  ,Spectrum
    108.17,  2252.10000,   656.20000
    108.66,  2260.70000,   653.40000
    109.15,  2276.70000,   641.00000
    109.65,  2308.90000,   617.40000
    110.14,  2315.70000,   614.00000
    110.63,  2324.40000,   601.50000
    111.13,  2335.20000,   595.30000
    111.62,  2324.40000,   591.80000
    112.11,  2342.00000,   586.40000
    112.60,  2366.40000,   572.20000
    113.10,  2350.40000,   569.50000
    113.59,  2367.80000,   573.30000
    114.08,  2386.60000,   573.00000
    114.58,  2376.30000,   575.00000
    115.07,  2423.10000,   569.60000
    115.56,  2437.80000,   566.70000
    116.06,  2427.90000,   562.20000
    116.55,  2434.80000,   568.30000
    117.04,  2425.20000,   571.10000
    117.53,  2400.40000,   573.40000
    118.03,  2432.60000,   565.60000
    118.52,  2430.20000,   575.70000
    119.01,  2425.50000,   576.70000
    119.51,  2519.60000,   582.40000
    120.00,  2610.60000,   591.80000
    120.49,  2643.60000,   605.60000
    120.98,  2642.60000,   615.30000
    121.48,  2552.80000,   628.20000
    121.97,  2445.90000,   639.80000
    122.46,  2441.10000,   647.90000
    122.95,  2469.00000,   661.20000
    123.45,  2502.80000,   678.70000
    123.94,  2514.40000,   680.10000
    124.43,  2531.20000,   691.80000
    124.92,  2560.80000,   705.90000
    125.42,  2564.80000,   721.20000
    125.91,  2581.00000,   731.80000
    126.40,  2571.30000,   744.90000
    126.89,  2541.80000,   743.50000
    127.39,  2523.20000,   759.40000
    127.88,  2524.10000,   762.20000
    128.37,  2530.70000,   770.30000
    128.86,  2557.90000,   782.60000
    129.35,  2558.00000,   796.00000
    129.85,  2561.80000,   811.40000
    130.34,  2545.70000,   828.90000
    130.83,  2549.40000,   833.60000
    131.32,  2555.40000,   839.90000
    131.81,  2560.80000,   846.90000
    132.31,  2560.80000,   854.00000
    132.80,  2566.50000,   857.10000
    133.29,  2553.00000,   858.30000
    133.78,  2562.20000,   863.70000
    134.27,  2573.80000,   877.80000
    134.77,  2583.50000,   878.30000
    135.26,  2609.30000,   880.60000
    135.75,  2607.70000,   879.60000
    136.24,  2618.10000,   891.20000
    136.73,  2597.60000,   904.40000
    137.23,  2602.40000,   934.40000
    137.72,  2598.80000,   935.60000
    138.21,  2605.80000,   937.30000
    138.70,  2597.30000,   937.50000
    139.19,  2636.70000,   939.90000
    139.68,  2624.00000,   939.20000
    140.18,  2624.00000,   952.90000
    140.67,  2633.70000,   945.60000
    141.16,  2636.20000,   947.80000
    141.65,  2621.90000,   953.20000
    142.14,  2623.10000,   954.40000
    142.63,  2638.70000,   959.50000
    143.13,  2642.60000,   965.70000
    143.62,  2676.60000,   973.50000
    144.11,  2679.00000,   986.10000
    144.60,  2639.80000,  1004.00000
    145.09,  2623.80000,  1016.50000
    145.58,  2682.10000,  1029.40000
    146.07,  2701.70000,  1034.60000
    146.56,  2708.20000,  1043.40000
    147.06,  2695.50000,  1047.80000
    147.55,  2663.00000,  1047.30000
    148.04,  2617.20000,  1052.20000
    148.53,  2652.60000,  1060.20000
    149.02,  2630.60000,  1073.40000
    149.51,  2702.00000,  1086.50000
    150.00,  2755.70000,  1100.60000
    150.49,  2781.60000,  1103.80000
    150.99,  2776.30000,  1117.00000
    151.48,  2756.50000,  1122.90000
    151.97,  2682.10000,  1137.00000
    152.46,  2687.00000,  1160.50000
    152.95,  2669.40000,  1190.50000
    153.44,  2673.30000,  1216.10000
    153.93,  2687.60000,  1244.20000
    154.42,  2705.60000,  1251.30000
    154.91,  2686.10000,  1251.80000
    155.40,  2665.80000,  1255.10000
    155.89,  2654.70000,  1253.30000
    156.39,  2675.50000,  1262.90000
    156.88,  2653.30000,  1270.90000
    157.37,  2664.20000,  1278.50000
    157.86,  2670.80000,  1292.10000
    158.35,  2680.70000,  1307.50000
    158.84,  2701.10000,  1313.50000
    159.33,  2742.30000,  1331.70000
    159.82,  2747.10000,  1344.00000
    160.31,  2756.30000,  1365.50000
    160.80,  2783.60000,  1408.30000
    161.29,  2739.10000,  1435.30000
    161.78,  2706.00000,  1456.50000
    162.27,  2681.20000,  1459.90000
    162.76,  2682.80000,  1458.00000
    163.25,  2699.20000,  1462.10000
    163.74,  2730.20000,  1475.20000
    164.23,  2731.10000,  1478.10000
    164.72,  2749.80000,  1504.30000
    165.21,  2721.00000,  1516.70000
    165.70,  2703.20000,  1538.10000
    166.20,  2742.10000,  1550.80000
    166.69,  2760.20000,  1575.20000
    167.18,  2770.80000,  1593.20000
    167.67,  2773.90000,  1615.50000
    168.16,  2742.90000,  1633.10000
    168.65,  2695.20000,  1638.60000
    169.14,  2724.70000,  1636.30000
    169.63,  2720.50000,  1641.10000
    170.12,  2718.60000,  1635.00000
    170.61,  2718.30000,  1617.20000
    171.10,  2774.30000,  1600.20000
    171.59,  2770.90000,  1576.90000
    172.08,  2779.50000,  1569.90000
    172.57,  2772.90000,  1566.60000
    173.06,  2772.30000,  1569.20000
    173.55,  2753.20000,  1583.20000
    174.04,  2731.80000,  1608.10000
    174.53,  2724.50000,  1620.40000
    175.02,  2722.80000,  1621.30000
    175.50,  2754.80000,  1620.60000
    175.99,  2794.50000,  1602.80000
    176.48,  2823.20000,  1598.40000
    176.97,  2793.90000,  1600.20000
    177.46,  2792.60000,  1601.90000
    177.95,  2761.50000,  1592.80000
    178.44,  2739.40000,  1593.20000
    178.93,  2719.40000,  1584.00000
    179.42,  2739.70000,  1572.30000
    179.91,  2752.80000,  1562.90000
    180.40,  2765.70000,  1554.70000
    180.89,  2775.80000,  1554.50000
    181.38,  2764.70000,  1563.30000
    181.87,  2756.70000,  1575.30000
    182.36,  2752.70000,  1587.30000
    182.85,  2724.70000,  1590.80000
    183.34,  2736.40000,  1592.20000
    183.83,  2749.70000,  1595.10000
    184.32,  2751.10000,  1591.20000
    184.81,  2802.90000,  1580.60000
    185.29,  2799.80000,  1581.80000
    185.78,  2764.60000,  1576.40000
    186.27,  2766.40000,  1574.90000
    186.76,  2751.90000,  1575.00000
    187.25,  2730.10000,  1563.80000
    187.74,  2813.20000,  1544.90000
    188.23,  2838.40000,  1540.70000
    188.72,  2858.90000,  1543.50000
    189.21,  2842.30000,  1543.60000
    189.70,  2807.60000,  1551.40000
    190.19,  2775.80000,  1550.60000
    190.67,  2769.30000,  1538.20000
    191.16,  2768.30000,  1542.40000
    191.65,  2774.50000,  1556.70000
    192.14,  2750.40000,  1572.60000
    192.63,  2770.10000,  1586.50000
    193.12,  2779.50000,  1585.30000
    193.61,  2769.60000,  1561.80000
    194.10,  2785.60000,  1557.20000
    194.59,  2782.10000,  1556.90000
    195.07,  2773.20000,  1561.10000
    195.56,  2783.60000,  1562.20000
    196.05,  2766.30000,  1548.90000
    196.54,  2759.30000,  1542.10000
    197.03,  2779.10000,  1548.10000
    197.52,  2817.40000,  1555.20000
    198.01,  2830.40000,  1549.70000
    198.49,  2825.50000,  1552.60000
    198.98,  2817.80000,  1542.10000
    199.47,  2776.30000,  1540.90000
    199.96,  2764.30000,  1548.70000
    200.45,  2777.80000,  1543.90000
    200.94,  2763.70000,  1532.80000
    201.43,  2767.20000,  1526.90000
    201.91,  2768.00000,  1510.10000
    202.40,  2766.00000,  1489.20000
    202.89,  2767.40000,  1488.90000
    203.38,  2779.50000,  1481.70000
    203.87,  2773.00000,  1486.60000
    204.36,  2762.70000,  1477.50000
    204.84,  2754.20000,  1473.70000
    205.33,  2771.30000,  1471.60000
    205.82,  2785.20000,  1482.30000
    206.31,  2779.80000,  1486.40000
    206.80,  2780.50000,  1497.50000
    207.28,  2791.40000,  1499.20000
    207.77,  2799.20000,  1502.60000
    208.26,  2809.30000,  1508.80000
    208.75,  2814.60000,  1497.80000
    209.24,  2794.20000,  1484.40000
    209.72,  2804.60000,  1480.80000
    210.21,  2823.10000,  1477.70000
    210.70,  2807.40000,  1486.30000
    211.19,  2823.80000,  1492.10000
    211.68,  2827.30000,  1492.40000
    212.16,  2828.40000,  1487.40000
    212.65,  2828.00000,  1496.90000
    213.14,  2813.00000,  1501.20000
    213.63,  2803.20000,  1509.30000
    214.12,  2793.10000,  1498.80000
    214.60,  2802.40000,  1505.90000
    215.09,  2821.90000,  1496.70000
    215.58,  2814.80000,  1509.00000
    216.07,  2808.00000,  1517.10000
    216.55,  2814.00000,  1516.00000
    217.04,  2754.60000,  1512.20000
    217.53,  2753.60000,  1514.70000
    218.02,  2756.40000,  1513.80000
    218.50,  2766.10000,  1525.70000
    218.99,  2784.00000,  1542.80000
    219.48,  2807.70000,  1548.20000
    219.97,  2772.30000,  1572.20000
    220.45,  2778.40000,  1585.30000
    220.94,  2771.40000,  1602.20000
    221.43,  2789.10000,  1614.50000
    221.92,  2815.30000,  1622.90000
    222.40,  2820.50000,  1635.50000
    222.89,  2809.20000,  1655.50000
    223.38,  2823.60000,  1667.90000
    223.86,  2835.90000,  1689.60000
    224.35,  2855.40000,  1720.10000
    224.84,  2870.00000,  1739.60000
    225.33,  2857.40000,  1774.00000
    225.81,  2823.10000,  1792.70000
    226.30,  2810.20000,  1802.50000
    226.79,  2804.40000,  1817.50000
    227.27,  2791.40000,  1840.20000
    227.76,  2793.80000,  1843.70000
    228.25,  2817.80000,  1857.60000
    228.74,  2827.00000,  1861.00000
    229.22,  2853.70000,  1860.00000
    229.71,  2849.80000,  1852.50000
    230.20,  2832.20000,  1837.90000
    230.68,  2819.80000,  1818.50000
    231.17,  2808.40000,  1801.40000
    231.66,  2783.30000,  1783.30000
    232.14,  2779.70000,  1772.70000
    232.63,  2766.60000,  1756.40000
    233.12,  2780.80000,  1741.30000
    233.60,  2802.60000,  1713.40000
    234.09,  2784.00000,  1680.40000
    234.58,  2775.50000,  1648.50000
    235.06,  2780.50000,  1621.90000
    235.55,  2777.20000,  1601.80000
    236.04,  2769.50000,  1583.60000
    236.52,  2791.10000,  1547.30000
    237.01,  2775.40000,  1519.80000
    237.50,  2808.60000,  1500.90000
    237.98,  2802.60000,  1478.70000
    238.47,  2851.90000,  1477.70000
    238.96,  2858.80000,  1475.90000
    239.44,  2851.20000,  1462.10000
    239.93,  2848.10000,  1459.60000
    240.41,  2803.90000,  1457.00000
    240.90,  2748.00000,  1425.20000
    241.39,  2775.80000,  1405.70000
    241.87,  2828.00000,  1383.70000
    242.36,  2845.00000,  1372.20000
    242.85,  2885.90000,  1379.10000
    243.33,  2866.00000,  1385.20000
    243.82,  2841.80000,  1371.50000
    244.30,  2810.60000,  1367.70000
    244.79,  2818.40000,  1361.70000
    245.28,  2796.00000,  1356.40000
    245.76,  2791.60000,  1357.20000
    246.25,  2780.00000,  1350.70000
    246.74,  2804.40000,  1343.80000
    247.22,  2833.20000,  1347.60000
    247.71,  2830.40000,  1350.90000
    248.19,  2818.70000,  1349.40000
    248.68,  2814.30000,  1359.50000
    249.16,  2780.00000,  1361.80000
    249.65,  2812.60000,  1364.50000
    250.14,  2826.80000,  1363.70000
    250.62,  2798.60000,  1360.70000
    251.11,  2773.70000,  1355.50000
    251.59,  2757.90000,  1351.30000
    252.08,  2741.80000,  1349.30000
    252.57,  2762.40000,  1343.70000
    253.05,  2772.20000,  1337.90000
    253.54,  2812.70000,  1329.20000
    254.02,  2833.60000,  1338.70000
    254.51,  2845.20000,  1331.40000
    254.99,  2840.90000,  1334.80000
    255.48,  2811.40000,  1327.80000
    255.96,  2783.10000,  1319.10000
    256.45,  2813.00000,  1302.80000
    256.94,  2811.70000,  1317.80000
    257.42,  2809.90000,  1316.00000
    257.91,  2821.30000,  1321.00000
    258.39,  2816.70000,  1322.60000
    258.88,  2799.00000,  1316.60000
    259.36,  2824.10000,  1298.10000
    259.85,  2814.10000,  1305.80000
    260.33,  2822.00000,  1310.40000
    260.82,  2848.30000,  1306.00000
    261.30,  2852.40000,  1312.00000
    261.79,  2825.30000,  1308.80000
    262.27,  2811.10000,  1299.80000
    262.76,  2789.70000,  1296.70000
    263.24,  2790.60000,  1299.80000
    263.73,  2817.00000,  1295.50000
    264.22,  2811.20000,  1308.20000
    264.70,  2870.40000,  1317.70000
    265.19,  2902.00000,  1310.10000
    265.67,  2903.20000,  1304.80000
    266.16,  2879.10000,  1301.10000
    266.64,  2852.00000,  1300.50000
    267.13,  2791.50000,  1305.20000
    267.61,  2793.40000,  1314.80000
    268.10,  2810.70000,  1308.10000
    268.58,  2809.50000,  1319.40000
    269.06,  2799.60000,  1330.20000
    269.55,  2812.90000,  1336.80000
    270.03,  2827.40000,  1336.00000
    270.52,  2830.00000,  1339.90000
    271.00,  2841.20000,  1339.40000
    271.49,  2839.40000,  1338.20000
    271.97,  2835.10000,  1344.30000
    272.46,  2842.30000,  1337.90000
    272.94,  2844.00000,  1341.60000
    273.43,  2839.20000,  1343.60000
    273.91,  2809.90000,  1365.10000
    274.40,  2795.70000,  1371.50000
    274.88,  2782.30000,  1379.80000
    275.37,  2789.20000,  1373.80000
    275.85,  2795.00000,  1370.50000
    276.33,  2801.60000,  1366.60000
    276.82,  2811.00000,  1383.40000
    277.30,  2819.10000,  1393.40000
    277.79,  2810.50000,  1400.80000
    278.27,  2826.00000,  1395.70000
    278.76,  2845.30000,  1389.80000
    279.24,  2854.80000,  1393.10000
    279.73,  2849.10000,  1402.50000
    280.21,  2835.00000,  1419.30000
    280.69,  2807.70000,  1436.80000
    281.18,  2811.10000,  1452.60000
    281.66,  2829.00000,  1461.80000
    282.15,  2867.10000,  1475.30000
    282.63,  2859.10000,  1486.00000
    283.11,  2841.40000,  1500.20000
    283.60,  2835.70000,  1507.30000
    284.08,  2847.10000,  1513.60000
    284.57,  2821.00000,  1516.60000
    285.05,  2822.00000,  1527.00000
    285.53,  2801.60000,  1547.20000
    286.02,  2773.60000,  1559.10000
    286.50,  2794.10000,  1568.70000
    286.99,  2816.10000,  1575.80000
    287.47,  2805.20000,  1572.30000
    287.95,  2798.00000,  1573.40000
    288.44,  2796.20000,  1579.60000
    288.92,  2790.00000,  1584.60000
    289.41,  2803.70000,  1594.40000
    289.89,  2829.90000,  1598.50000
    290.37,  2837.40000,  1582.90000
    290.86,  2863.70000,  1577.70000
    291.34,  2837.20000,  1574.70000
    291.82,  2814.20000,  1593.70000
    292.31,  2783.40000,  1612.50000
    292.79,  2796.20000,  1609.30000
    293.28,  2795.00000,  1593.40000
    293.76,  2813.60000,  1584.70000
    294.24,  2822.50000,  1566.40000
    294.73,  2842.10000,  1561.10000
    295.21,  2845.30000,  1566.00000
    295.69,  2856.80000,  1554.30000
    296.18,  2827.20000,  1551.50000
    296.66,  2783.30000,  1550.20000
    297.14,  2785.80000,  1538.10000
    297.63,  2799.60000,  1523.10000
    298.11,  2820.50000,  1508.90000
    298.59,  2852.40000,  1501.80000
    299.08,  2860.50000,  1504.40000
    299.56,  2855.10000,  1500.70000
    300.04,  2871.20000,  1500.30000
    300.53,  2868.80000,  1484.70000
    301.01,  2862.30000,  1462.60000
    301.49,  2850.90000,  1451.50000
    301.98,  2823.70000,  1437.30000
    302.46,  2802.30000,  1423.50000
    302.94,  2806.00000,  1407.60000
    303.42,  2808.90000,  1383.80000
    303.91,  2800.30000,  1360.60000
    304.39,  2785.20000,  1346.50000
    304.87,  2791.30000,  1335.60000
    305.36,  2810.70000,  1346.00000
    305.84,  2839.80000,  1346.30000
    306.32,  2875.30000,  1339.60000
    306.81,  2859.20000,  1324.50000
    307.29,  2832.80000,  1302.00000
    307.77,  2822.20000,  1289.50000
    308.25,  2821.50000,  1288.00000
    308.74,  2835.60000,  1280.20000
    309.22,  2831.50000,  1273.70000
    309.70,  2808.40000,  1277.50000
    310.18,  2790.70000,  1266.70000
    310.67,  2797.10000,  1265.70000
    311.15,  2814.40000,  1259.10000
    311.63,  2836.20000,  1252.20000
    312.12,  2844.50000,  1239.60000
    312.60,  2818.80000,  1232.60000
    313.08,  2798.00000,  1204.20000
    313.56,  2794.30000,  1187.20000
    314.05,  2791.40000,  1185.20000
    314.53,  2804.50000,  1198.40000
    315.01,  2857.50000,  1195.10000
    315.49,  2852.90000,  1195.80000
    315.98,  2852.80000,  1188.50000
    316.46,  2831.90000,  1184.00000
    316.94,  2792.50000,  1187.30000
    317.42,  2772.50000,  1193.40000
    317.90,  2781.40000,  1187.60000
    318.39,  2767.30000,  1182.60000
    318.87,  2814.50000,  1179.00000
    319.35,  2839.50000,  1171.90000
    319.83,  2849.50000,  1168.30000
    320.32,  2857.30000,  1164.70000
    320.80,  2866.70000,  1157.10000
    321.28,  2828.50000,  1151.70000
    321.76,  2861.20000,  1148.80000
    322.24,  2855.60000,  1146.50000
    322.73,  2868.50000,  1146.70000
    323.21,  2866.40000,  1144.70000
    323.69,  2874.00000,  1145.30000
    324.17,  2825.90000,  1149.20000
    324.65,  2801.50000,  1148.10000
    325.14,  2804.70000,  1144.80000
    325.62,  2822.80000,  1145.80000
    326.10,  2868.10000,  1136.30000
    326.58,  2895.60000,  1122.90000
    327.06,  2852.60000,  1120.50000
    327.55,  2862.80000,  1120.20000
    328.03,  2880.50000,  1127.20000
    328.51,  2882.00000,  1147.80000
    328.99,  2895.80000,  1151.00000
    329.47,  2890.00000,  1140.20000
    329.95,  2819.20000,  1136.70000
    330.44,  2826.20000,  1133.50000
    330.92,  2794.60000,  1130.80000
    331.40,  2777.50000,  1141.40000
    331.88,  2771.70000,  1145.70000
    332.36,  2787.90000,  1144.20000
    332.84,  2816.70000,  1135.10000
    333.33,  2859.20000,  1128.80000
    333.81,  2858.70000,  1128.80000
    334.29,  2863.30000,  1126.20000
    334.77,  2856.00000,  1126.50000
    335.25,  2839.30000,  1126.90000
    335.73,  2851.20000,  1121.60000
    336.21,  2850.50000,  1119.20000
    336.69,  2828.30000,  1129.30000
    337.18,  2822.30000,  1117.00000
    337.66,  2803.60000,  1104.90000
    338.14,  2788.10000,  1097.20000
    338.62,  2783.70000,  1094.80000
    339.10,  2811.40000,  1101.70000
    339.58,  2849.40000,  1108.30000
    340.06,  2858.90000,  1119.30000
    340.54,  2856.40000,  1121.20000
    341.03,  2841.50000,  1119.70000
    341.51,  2812.10000,  1107.70000
    341.99,  2813.40000,  1102.40000
    342.47,  2829.50000,  1083.50000
    342.95,  2822.30000,  1093.20000
    343.43,  2818.30000,  1090.50000
    343.91,  2820.20000,  1092.50000
    344.39,  2803.80000,  1086.90000
    344.87,  2789.70000,  1088.50000
    345.35,  2807.90000,  1085.70000
    345.84,  2815.00000,  1106.40000
    346.32,  2860.90000,  1106.80000
    346.80,  2878.90000,  1112.60000
    347.28,  2867.40000,  1117.50000
    347.76,  2833.90000,  1105.30000
    348.24,  2835.20000,  1084.10000
    348.72,  2857.10000,  1082.40000
    349.20,  2890.50000,  1076.00000
    349.68,  2880.20000,  1083.40000
    350.16,  2849.30000,  1091.10000
    350.64,  2802.10000,  1090.10000
    351.12,  2790.90000,  1072.50000
    351.60,  2838.20000,  1077.00000
    352.08,  2881.80000,  1076.80000
    352.56,  2899.10000,  1086.70000
    353.04,  2892.90000,  1087.60000
    353.53,  2870.20000,  1093.80000
    354.01,  2855.10000,  1077.70000
    354.49,  2865.50000,  1079.90000
    354.97,  2873.60000,  1070.00000
    355.45,  2871.10000,  1069.30000
    355.93,  2840.50000,  1073.00000
    356.41,  2845.30000,  1084.80000
    356.89,  2829.20000,  1079.60000
    357.37,  2836.30000,  1082.50000
    357.85,  2823.10000,  1081.80000
    358.33,  2813.70000,  1083.30000
    358.81,  2786.10000,  1091.20000
    359.29,  2799.20000,  1085.90000
    359.77,  2823.10000,  1076.20000
    360.25,  2855.10000,  1068.60000
    360.73,  2860.30000,  1069.10000
    361.21,  2848.50000,  1079.30000
    361.69,  2847.50000,  1087.40000
    362.17,  2843.30000,  1083.00000
    362.65,  2858.70000,  1083.20000
    363.13,  2861.20000,  1083.80000
    363.61,  2870.70000,  1081.40000
    364.09,  2839.70000,  1083.20000
    364.57,  2834.30000,  1083.70000
    365.05,  2838.40000,  1080.80000
    365.53,  2826.00000,  1079.40000
    366.01,  2838.20000,  1084.80000
    366.49,  2873.70000,  1093.60000
    366.97,  2829.80000,  1097.40000
    367.45,  2841.80000,  1100.60000
    367.93,  2876.70000,  1097.80000
