2D Measure spectrum data V5.74

<< MEASURE 1 >>
Data count = 2048
Exposure time = 30000 msec
Average = 10
Inspected time = 2020/10/25 16:21

Wave-dcm-1,Dark spec.  ,Spectrum
    108.17,  2206.50000,   711.60000
    108.66,  2212.50000,   704.70000
    109.15,  2230.90000,   688.10000
    109.65,  2240.10000,   681.50000
    110.14,  2249.90000,   669.60000
    110.63,  2260.70000,   660.00000
    111.13,  2246.60000,   673.20000
    111.62,  2259.40000,   657.90000
    112.11,  2282.60000,   653.30000
    112.60,  2268.40000,   670.20000
    113.10,  2291.60000,   646.00000
    113.59,  2310.10000,   648.00000
    114.08,  2296.40000,   663.40000
    114.58,  2339.50000,   625.90000
    115.07,  2353.20000,   648.50000
    115.56,  2341.90000,   665.10000
    116.06,  2346.70000,   654.30000
    116.55,  2337.10000,   670.60000
    117.04,  2315.60000,   672.70000
    117.53,  2345.50000,   639.60000
    118.03,  2357.20000,   658.10000
    118.52,  2353.30000,   674.50000
    119.01,  2444.30000,   618.20000
    119.51,  2530.30000,   636.30000
    120.00,  2564.50000,   681.60000
    120.49,  2561.50000,   717.00000
    120.98,  2484.20000,   773.40000
    121.48,  2378.10000,   808.00000
    121.97,  2365.10000,   763.40000
    122.46,  2390.50000,   762.50000
    122.95,  2426.80000,   774.70000
    123.45,  2435.10000,   802.90000
    123.94,  2454.10000,   813.80000
    124.43,  2487.40000,   830.00000
    124.92,  2483.80000,   861.80000
    125.42,  2503.00000,   871.00000
    125.91,  2493.90000,   899.40000
    126.40,  2465.30000,   922.30000
    126.89,  2448.10000,   937.40000
    127.39,  2443.80000,   945.30000
    127.88,  2442.80000,   951.70000
    128.37,  2468.40000,   950.60000
    128.86,  2469.80000,   975.10000
    129.35,  2477.30000,   990.60000
    129.85,  2468.70000,  1027.70000
    130.34,  2467.10000,  1043.20000
    130.83,  2473.10000,  1050.60000
    131.32,  2477.60000,  1057.10000
    131.81,  2478.40000,  1058.00000
    132.31,  2477.40000,  1060.50000
    132.80,  2464.70000,  1071.20000
    133.29,  2468.30000,  1070.80000
    133.78,  2486.60000,  1068.10000
    134.27,  2497.00000,  1089.50000
    134.77,  2517.00000,  1094.00000
    135.26,  2514.90000,  1118.20000
    135.75,  2527.40000,  1124.00000
    136.24,  2508.20000,  1164.20000
    136.73,  2524.10000,  1149.20000
    137.23,  2509.90000,  1178.80000
    137.72,  2502.60000,  1184.10000
    138.21,  2495.10000,  1187.40000
    138.70,  2534.90000,  1164.30000
    139.19,  2529.40000,  1195.90000
    139.68,  2535.50000,  1187.70000
    140.18,  2542.70000,  1189.70000
    140.67,  2539.10000,  1207.10000
    141.16,  2534.30000,  1208.50000
    141.65,  2539.60000,  1206.90000
    142.14,  2561.20000,  1201.30000
    142.63,  2563.90000,  1227.10000
    143.13,  2595.00000,  1228.50000
    143.62,  2592.30000,  1279.50000
    144.11,  2555.10000,  1306.90000
    144.60,  2536.30000,  1307.90000
    145.09,  2583.30000,  1278.40000
    145.58,  2602.20000,  1298.70000
    146.07,  2611.90000,  1307.00000
    146.56,  2608.80000,  1322.50000
    147.06,  2578.60000,  1337.70000
    147.55,  2532.10000,  1368.80000
    148.04,  2561.20000,  1347.00000
    148.53,  2541.00000,  1398.20000
    149.02,  2613.00000,  1355.90000
    149.51,  2670.10000,  1377.70000
    150.00,  2698.70000,  1401.80000
    150.49,  2690.80000,  1444.50000
    150.99,  2671.30000,  1472.20000
    151.48,  2585.90000,  1544.00000
    151.97,  2586.30000,  1521.30000
    152.46,  2571.00000,  1568.00000
    152.95,  2579.70000,  1555.10000
    153.44,  2600.20000,  1546.90000
    153.93,  2622.80000,  1535.90000
    154.42,  2608.10000,  1552.40000
    154.91,  2593.50000,  1544.80000
    155.40,  2574.00000,  1563.30000
    155.89,  2584.00000,  1549.90000
    156.39,  2557.70000,  1580.10000
    156.88,  2569.70000,  1570.80000
    157.37,  2585.90000,  1577.30000
    157.86,  2599.10000,  1588.10000
    158.35,  2618.00000,  1611.30000
    158.84,  2661.40000,  1617.10000
    159.33,  2669.50000,  1657.70000
    159.82,  2677.40000,  1682.40000
    160.31,  2707.70000,  1687.70000
    160.80,  2660.10000,  1744.50000
    161.29,  2628.40000,  1744.80000
    161.78,  2599.50000,  1743.10000
    162.27,  2593.80000,  1724.60000
    162.76,  2600.00000,  1717.10000
    163.25,  2629.80000,  1711.50000
    163.74,  2633.10000,  1732.50000
    164.23,  2655.90000,  1737.60000
    164.72,  2634.80000,  1785.30000
    165.21,  2615.00000,  1800.90000
    165.70,  2649.50000,  1786.70000
    166.20,  2670.90000,  1811.40000
    166.69,  2684.30000,  1821.60000
    167.18,  2687.50000,  1833.70000
    167.67,  2662.80000,  1843.20000
    168.16,  2618.70000,  1841.70000
    168.65,  2645.00000,  1777.90000
    169.14,  2644.90000,  1779.90000
    169.63,  2628.30000,  1778.00000
    170.12,  2615.50000,  1765.50000
    170.61,  2665.60000,  1710.40000
    171.10,  2668.60000,  1728.20000
    171.59,  2683.90000,  1705.40000
    172.08,  2686.40000,  1714.50000
    172.57,  2678.40000,  1725.70000
    173.06,  2655.50000,  1739.70000
    173.55,  2635.90000,  1750.00000
    174.04,  2627.70000,  1745.10000
    174.53,  2625.00000,  1743.50000
    175.02,  2655.40000,  1722.30000
    175.50,  2690.20000,  1708.20000
    175.99,  2724.00000,  1695.80000
    176.48,  2698.70000,  1722.50000
    176.97,  2690.00000,  1700.70000
    177.46,  2659.70000,  1714.10000
    177.95,  2642.30000,  1704.10000
    178.44,  2625.30000,  1700.90000
    178.93,  2647.00000,  1678.70000
    179.42,  2660.20000,  1687.80000
    179.91,  2662.20000,  1703.30000
    180.40,  2672.50000,  1715.60000
    180.89,  2666.70000,  1726.00000
    181.38,  2664.00000,  1723.60000
    181.87,  2657.00000,  1737.90000
    182.36,  2626.50000,  1765.50000
    182.85,  2639.40000,  1748.20000
    183.34,  2646.50000,  1755.50000
    183.83,  2642.30000,  1751.10000
    184.32,  2698.00000,  1706.30000
    184.81,  2727.20000,  1698.30000
    185.29,  2723.80000,  1684.80000
    185.78,  2752.30000,  1632.40000
    186.27,  2762.40000,  1604.40000
    186.76,  2736.00000,  1598.50000
    187.25,  2788.50000,  1554.80000
    187.74,  2790.30000,  1606.90000
    188.23,  2778.60000,  1657.70000
    188.72,  2740.00000,  1724.40000
    189.21,  2708.40000,  1746.60000
    189.70,  2675.30000,  1751.30000
    190.19,  2664.60000,  1737.30000
    190.67,  2655.30000,  1742.70000
    191.16,  2656.60000,  1738.90000
    191.65,  2643.60000,  1756.50000
    192.14,  2670.90000,  1722.60000
    192.63,  2683.60000,  1731.70000
    193.12,  2675.80000,  1740.30000
    193.61,  2695.50000,  1719.60000
    194.10,  2698.40000,  1719.80000
    194.59,  2695.70000,  1715.30000
    195.07,  2713.10000,  1686.30000
    195.56,  2686.50000,  1713.20000
    196.05,  2663.20000,  1717.00000
    196.54,  2676.70000,  1701.60000
    197.03,  2716.40000,  1696.50000
    197.52,  2726.70000,  1714.40000
    198.01,  2734.60000,  1708.10000
    198.49,  2726.70000,  1713.80000
    198.98,  2682.30000,  1736.60000
    199.47,  2670.10000,  1715.60000
    199.96,  2682.10000,  1695.00000
    200.45,  2659.50000,  1712.50000
    200.94,  2664.50000,  1686.80000
    201.43,  2657.10000,  1691.80000
    201.91,  2649.80000,  1692.10000
    202.40,  2654.20000,  1690.80000
    202.89,  2672.70000,  1678.80000
    203.38,  2670.10000,  1699.50000
    203.87,  2659.90000,  1706.00000
    204.36,  2657.40000,  1696.40000
    204.84,  2674.20000,  1681.70000
    205.33,  2690.90000,  1688.60000
    205.82,  2684.90000,  1701.10000
    206.31,  2686.70000,  1705.40000
    206.80,  2689.80000,  1717.30000
    207.28,  2698.00000,  1715.10000
    207.77,  2703.00000,  1727.20000
    208.26,  2708.60000,  1736.10000
    208.75,  2684.20000,  1754.10000
    209.24,  2701.10000,  1739.00000
    209.72,  2713.50000,  1752.30000
    210.21,  2699.20000,  1771.60000
    210.70,  2717.50000,  1766.30000
    211.19,  2729.90000,  1781.40000
    211.68,  2731.50000,  1801.50000
    212.16,  2736.50000,  1823.70000
    212.65,  2715.10000,  1849.90000
    213.14,  2702.60000,  1857.60000
    213.63,  2685.20000,  1873.80000
    214.12,  2698.00000,  1870.30000
    214.60,  2715.50000,  1875.20000
    215.09,  2722.10000,  1890.20000
    215.58,  2714.40000,  1895.40000
    216.07,  2717.90000,  1905.50000
    216.55,  2652.50000,  1970.40000
    217.04,  2643.90000,  1965.30000
    217.53,  2637.60000,  1982.20000
    218.02,  2652.30000,  1988.00000
    218.50,  2672.30000,  1995.10000
    218.99,  2701.80000,  2007.50000
    219.48,  2671.10000,  2066.10000
    219.97,  2681.60000,  2063.50000
    220.45,  2677.00000,  2086.10000
    220.94,  2695.20000,  2079.20000
    221.43,  2719.20000,  2081.80000
    221.92,  2722.70000,  2095.90000
    222.40,  2705.10000,  2113.10000
    222.89,  2728.20000,  2086.80000
    223.38,  2742.80000,  2092.80000
    223.86,  2762.10000,  2086.40000
    224.35,  2764.20000,  2095.20000
    224.84,  2746.00000,  2107.70000
    225.33,  2708.10000,  2121.80000
    225.81,  2694.90000,  2081.00000
    226.30,  2689.70000,  2054.60000
    226.79,  2680.10000,  2041.40000
    227.27,  2682.10000,  2017.40000
    227.76,  2703.40000,  2003.80000
    228.25,  2724.90000,  1996.50000
    228.74,  2741.50000,  1968.50000
    229.22,  2738.30000,  1945.40000
    229.71,  2718.00000,  1925.10000
    230.20,  2710.20000,  1888.00000
    230.68,  2696.80000,  1866.30000
    231.17,  2684.20000,  1844.20000
    231.66,  2678.70000,  1809.60000
    232.14,  2670.70000,  1788.80000
    232.63,  2688.60000,  1753.10000
    233.12,  2709.30000,  1733.50000
    233.60,  2690.10000,  1731.50000
    234.09,  2673.90000,  1711.20000
    234.58,  2672.60000,  1685.40000
    235.06,  2671.80000,  1679.80000
    235.55,  2669.20000,  1663.60000
    236.04,  2690.50000,  1642.60000
    236.52,  2675.80000,  1639.20000
    237.01,  2703.60000,  1595.10000
    237.50,  2695.90000,  1610.20000
    237.98,  2755.00000,  1558.90000
    238.47,  2757.90000,  1588.30000
    238.96,  2751.40000,  1597.90000
    239.44,  2748.80000,  1584.90000
    239.93,  2711.70000,  1591.20000
    240.41,  2644.60000,  1595.20000
    240.90,  2670.40000,  1522.60000
    241.39,  2707.80000,  1514.60000
    241.87,  2724.40000,  1525.90000
    242.36,  2771.70000,  1509.10000
    242.85,  2764.40000,  1539.20000
    243.33,  2736.40000,  1549.40000
    243.82,  2710.20000,  1536.90000
    244.30,  2719.50000,  1501.40000
    244.79,  2701.30000,  1512.80000
    245.28,  2695.00000,  1514.60000
    245.76,  2677.40000,  1532.80000
    246.25,  2696.90000,  1520.00000
    246.74,  2724.90000,  1506.50000
    247.22,  2729.70000,  1503.50000
    247.71,  2718.70000,  1504.10000
    248.19,  2720.10000,  1495.30000
    248.68,  2683.80000,  1519.60000
    249.16,  2715.40000,  1487.40000
    249.65,  2730.00000,  1493.90000
    250.14,  2704.00000,  1509.50000
    250.62,  2677.80000,  1512.80000
    251.11,  2662.70000,  1508.40000
    251.59,  2650.40000,  1510.80000
    252.08,  2670.80000,  1485.20000
    252.57,  2679.60000,  1484.60000
    253.05,  2719.80000,  1457.00000
    253.54,  2748.80000,  1468.40000
    254.02,  2746.70000,  1495.60000
    254.51,  2743.10000,  1515.30000
    254.99,  2706.20000,  1536.70000
    255.48,  2675.80000,  1535.90000
    255.96,  2706.50000,  1484.00000
    256.45,  2716.70000,  1481.50000
    256.94,  2705.70000,  1488.00000
    257.42,  2713.40000,  1493.60000
    257.91,  2706.20000,  1518.40000
    258.39,  2689.20000,  1536.40000
    258.88,  2710.90000,  1509.70000
    259.36,  2708.40000,  1519.80000
    259.85,  2721.50000,  1512.40000
    260.33,  2746.40000,  1499.50000
    260.82,  2756.30000,  1506.10000
    261.30,  2727.60000,  1524.50000
    261.79,  2709.10000,  1520.00000
    262.27,  2688.60000,  1527.50000
    262.76,  2691.20000,  1528.40000
    263.24,  2718.20000,  1515.70000
    263.73,  2712.80000,  1544.20000
    264.22,  2776.00000,  1506.10000
    264.70,  2801.30000,  1530.30000
    265.19,  2797.30000,  1552.50000
    265.67,  2768.80000,  1577.90000
    266.16,  2750.50000,  1584.30000
    266.64,  2680.50000,  1626.80000
    267.13,  2688.10000,  1577.40000
    267.61,  2698.80000,  1574.60000
    268.10,  2701.00000,  1579.30000
    268.58,  2701.60000,  1582.20000
    269.06,  2725.30000,  1576.50000
    269.55,  2731.60000,  1590.10000
    270.03,  2729.90000,  1600.50000
    270.52,  2739.60000,  1604.60000
    271.00,  2737.70000,  1624.10000
    271.49,  2739.80000,  1630.70000
    271.97,  2747.10000,  1634.50000
    272.46,  2749.70000,  1640.00000
    272.94,  2743.00000,  1651.90000
    273.43,  2717.50000,  1663.70000
    273.91,  2700.30000,  1671.30000
    274.40,  2689.30000,  1677.40000
    274.88,  2689.60000,  1682.20000
    275.37,  2689.10000,  1690.80000
    275.85,  2695.50000,  1696.70000
    276.33,  2706.00000,  1698.10000
    276.82,  2719.10000,  1693.20000
    277.30,  2716.20000,  1702.10000
    277.79,  2724.10000,  1694.00000
    278.27,  2732.80000,  1697.60000
    278.76,  2736.70000,  1703.50000
    279.24,  2733.50000,  1714.30000
    279.73,  2723.50000,  1713.60000
    280.21,  2701.40000,  1724.40000
    280.69,  2711.50000,  1704.80000
    281.18,  2725.30000,  1709.10000
    281.66,  2762.50000,  1696.30000
    282.15,  2755.90000,  1730.90000
    282.63,  2741.60000,  1734.70000
    283.11,  2736.10000,  1732.30000
    283.60,  2754.90000,  1711.40000
    284.08,  2724.50000,  1732.60000
    284.57,  2727.20000,  1709.80000
    285.05,  2706.20000,  1717.70000
    285.53,  2684.70000,  1711.00000
    286.02,  2709.20000,  1671.50000
    286.50,  2729.80000,  1665.10000
    286.99,  2711.60000,  1684.70000
    287.47,  2708.10000,  1673.90000
    287.95,  2703.30000,  1668.30000
    288.44,  2694.10000,  1661.50000
    288.92,  2707.80000,  1632.20000
    289.41,  2732.00000,  1620.10000
    289.89,  2737.50000,  1620.50000
    290.37,  2764.40000,  1598.70000
    290.86,  2733.20000,  1626.60000
    291.34,  2704.70000,  1616.80000
    291.82,  2679.60000,  1610.60000
    292.31,  2690.60000,  1586.60000
    292.79,  2694.50000,  1570.00000
    293.28,  2714.50000,  1548.80000
    293.76,  2720.60000,  1547.10000
    294.24,  2744.30000,  1524.70000
    294.73,  2756.40000,  1511.70000
    295.21,  2759.30000,  1499.00000
    295.69,  2730.60000,  1496.70000
    296.18,  2686.10000,  1499.70000
    296.66,  2684.10000,  1473.20000
    297.14,  2702.10000,  1466.30000
    297.63,  2719.60000,  1460.10000
    298.11,  2746.20000,  1451.30000
    298.59,  2748.50000,  1462.00000
    299.08,  2744.30000,  1444.80000
    299.56,  2768.70000,  1405.60000
    300.04,  2780.00000,  1394.10000
    300.53,  2774.50000,  1393.50000
    301.01,  2760.20000,  1402.70000
    301.49,  2723.20000,  1428.80000
    301.98,  2697.00000,  1423.50000
    302.46,  2698.20000,  1395.10000
    302.94,  2702.40000,  1378.00000
    303.42,  2692.40000,  1377.90000
    303.91,  2671.90000,  1378.60000
    304.39,  2673.10000,  1359.00000
    304.87,  2694.10000,  1339.80000
    305.36,  2727.00000,  1316.30000
    305.84,  2768.70000,  1299.60000
    306.32,  2762.80000,  1313.60000
    306.81,  2733.20000,  1317.10000
    307.29,  2720.20000,  1300.00000
    307.77,  2716.00000,  1304.20000
    308.25,  2725.10000,  1303.00000
    308.74,  2721.40000,  1319.90000
    309.22,  2711.50000,  1315.60000
    309.70,  2701.40000,  1294.00000
    310.18,  2713.60000,  1261.20000
    310.67,  2724.30000,  1250.30000
    311.15,  2736.70000,  1241.80000
    311.63,  2739.60000,  1251.60000
    312.12,  2717.30000,  1267.60000
    312.60,  2697.90000,  1260.70000
    313.08,  2686.20000,  1252.40000
    313.56,  2676.90000,  1244.80000
    314.05,  2701.40000,  1221.40000
    314.53,  2757.50000,  1190.20000
    315.01,  2752.50000,  1230.10000
    315.49,  2756.20000,  1230.20000
    315.98,  2730.20000,  1249.20000
    316.46,  2688.00000,  1256.60000
    316.94,  2677.20000,  1227.90000
    317.42,  2685.30000,  1202.60000
    317.90,  2666.60000,  1220.00000
    318.39,  2715.60000,  1179.60000
    318.87,  2743.00000,  1188.50000
    319.35,  2745.30000,  1201.00000
    319.83,  2753.60000,  1196.40000
    320.32,  2765.10000,  1191.90000
    320.80,  2724.30000,  1218.90000
    321.28,  2757.90000,  1173.30000
    321.76,  2760.40000,  1194.00000
    322.24,  2768.80000,  1187.40000
    322.73,  2770.80000,  1195.00000
    323.21,  2775.90000,  1196.40000
    323.69,  2722.60000,  1226.90000
    324.17,  2691.30000,  1213.70000
    324.65,  2698.00000,  1185.70000
    325.14,  2714.00000,  1160.80000
    325.62,  2761.30000,  1141.80000
    326.10,  2782.30000,  1165.10000
    326.58,  2737.00000,  1217.20000
    327.06,  2747.10000,  1199.70000
    327.55,  2775.10000,  1191.80000
    328.03,  2784.60000,  1189.80000
    328.51,  2800.90000,  1187.90000
    328.99,  2791.10000,  1201.70000
    329.47,  2716.20000,  1243.10000
    329.95,  2726.30000,  1190.50000
    330.44,  2691.10000,  1212.30000
    330.92,  2670.70000,  1197.50000
    331.40,  2663.20000,  1193.60000
    331.88,  2679.70000,  1184.00000
    332.36,  2711.80000,  1169.00000
    332.84,  2756.80000,  1150.90000
    333.33,  2758.50000,  1166.30000
    333.81,  2761.50000,  1163.90000
    334.29,  2756.50000,  1160.70000
    334.77,  2751.10000,  1157.00000
    335.25,  2769.40000,  1133.10000
    335.73,  2761.80000,  1152.10000
    336.21,  2745.70000,  1155.40000
    336.69,  2725.70000,  1161.40000
    337.18,  2698.40000,  1161.30000
    337.66,  2685.70000,  1147.40000
    338.14,  2681.60000,  1138.30000
    338.62,  2705.80000,  1126.80000
    339.10,  2749.60000,  1106.50000
    339.58,  2760.60000,  1119.90000
    340.06,  2766.70000,  1118.80000
    340.54,  2757.70000,  1131.90000
    341.03,  2729.30000,  1145.30000
    341.51,  2725.70000,  1134.70000
    341.99,  2733.00000,  1126.50000
    342.47,  2727.70000,  1129.80000
    342.95,  2726.00000,  1125.00000
    343.43,  2726.50000,  1119.00000
    343.91,  2708.90000,  1124.80000
    344.39,  2688.40000,  1128.80000
    344.87,  2703.10000,  1104.50000
    345.35,  2718.50000,  1093.50000
    345.84,  2765.20000,  1076.20000
    346.32,  2779.50000,  1096.80000
    346.80,  2775.40000,  1115.20000
    347.28,  2742.00000,  1143.90000
    347.76,  2738.00000,  1125.40000
    348.24,  2758.80000,  1104.00000
    348.72,  2788.10000,  1100.70000
    349.20,  2776.50000,  1122.30000
    349.68,  2743.40000,  1132.80000
    350.16,  2696.80000,  1142.80000
    350.64,  2684.00000,  1117.90000
    351.12,  2732.30000,  1084.20000
    351.60,  2775.30000,  1093.70000
    352.08,  2799.60000,  1104.30000
    352.56,  2789.30000,  1132.50000
    353.04,  2764.50000,  1140.30000
    353.53,  2741.90000,  1137.10000
    354.01,  2753.70000,  1111.90000
    354.49,  2751.90000,  1121.30000
    354.97,  2752.20000,  1117.50000
    355.45,  2728.00000,  1140.80000
    355.93,  2741.30000,  1114.20000
    356.41,  2726.20000,  1131.10000
    356.89,  2741.00000,  1101.90000
    357.37,  2725.30000,  1116.80000
    357.85,  2718.20000,  1109.00000
    358.33,  2688.10000,  1132.10000
    358.81,  2702.90000,  1110.60000
    359.29,  2719.40000,  1114.20000
    359.77,  2743.20000,  1109.90000
    360.25,  2747.70000,  1116.70000
    360.73,  2736.40000,  1119.90000
    361.21,  2737.00000,  1114.60000
    361.69,  2732.40000,  1120.40000
    362.17,  2736.50000,  1121.40000
    362.65,  2737.20000,  1129.40000
    363.13,  2754.10000,  1126.90000
    363.61,  2727.90000,  1147.10000
    364.09,  2724.30000,  1134.90000
    364.57,  2721.70000,  1133.00000
    365.05,  2704.40000,  1139.80000
    365.53,  2718.10000,  1125.70000
    366.01,  2760.90000,  1124.70000
    366.49,  2723.80000,  1170.70000
    366.97,  2734.60000,  1141.20000
    367.45,  2758.80000,  1131.70000
    367.93,  2746.70000,  1146.40000
