2D Measure spectrum data V5.74

<< MEASURE 1 >>
Data count = 2048
Exposure time = 30000 msec
Average = 10
Inspected time = 2020/10/19 19:29

Wave-dcm-1,Dark spec.  ,Spectrum
    108.17,  2245.20000,   602.90000
    108.66,  2248.80000,   598.70000
    109.15,  2254.20000,   602.10000
    109.65,  2273.70000,   598.90000
    110.14,  2285.10000,   592.40000
    110.63,  2298.70000,   577.40000
    111.13,  2319.90000,   566.40000
    111.62,  2313.00000,   557.20000
    112.11,  2324.50000,   565.30000
    112.60,  2343.10000,   565.10000
    113.10,  2328.30000,   568.60000
    113.59,  2348.50000,   557.00000
    114.08,  2370.40000,   547.00000
    114.58,  2365.10000,   537.80000
    115.07,  2408.10000,   538.10000
    115.56,  2420.10000,   540.60000
    116.06,  2406.90000,   549.00000
    116.55,  2409.30000,   551.70000
    117.04,  2400.20000,   547.70000
    117.53,  2376.20000,   551.70000
    118.03,  2409.10000,   553.00000
    118.52,  2413.80000,   558.10000
    119.01,  2411.10000,   563.60000
    119.51,  2502.50000,   571.80000
    120.00,  2588.10000,   581.30000
    120.49,  2613.90000,   596.60000
    120.98,  2614.80000,   602.20000
    121.48,  2530.70000,   619.50000
    121.97,  2432.30000,   632.00000
    122.46,  2427.40000,   644.50000
    122.95,  2451.70000,   670.10000
    123.45,  2485.00000,   684.10000
    123.94,  2492.50000,   698.60000
    124.43,  2509.90000,   711.80000
    124.92,  2534.60000,   723.90000
    125.42,  2534.60000,   729.70000
    125.91,  2547.50000,   751.40000
    126.40,  2537.40000,   769.20000
    126.89,  2511.60000,   793.70000
    127.39,  2505.40000,   804.30000
    127.88,  2498.90000,   816.70000
    128.37,  2503.80000,   815.50000
    128.86,  2527.90000,   823.00000
    129.35,  2522.00000,   839.60000
    129.85,  2526.50000,   867.60000
    130.34,  2516.20000,   892.50000
    130.83,  2517.50000,   910.40000
    131.32,  2528.10000,   917.00000
    131.81,  2537.80000,   908.30000
    132.31,  2536.10000,   913.70000
    132.80,  2529.80000,   930.80000
    133.29,  2511.80000,   941.70000
    133.78,  2525.50000,   950.40000
    134.27,  2542.20000,   966.70000
    134.77,  2554.70000,   973.80000
    135.26,  2581.50000,   988.40000
    135.75,  2575.00000,  1006.60000
    136.24,  2589.60000,  1011.10000
    136.73,  2579.20000,  1007.50000
    137.23,  2588.10000,  1017.50000
    137.72,  2581.50000,  1021.10000
    138.21,  2578.60000,  1025.40000
    138.70,  2561.60000,  1042.10000
    139.19,  2593.80000,  1053.80000
    139.68,  2578.80000,  1066.60000
    140.18,  2583.40000,  1082.30000
    140.67,  2605.00000,  1079.40000
    141.16,  2607.90000,  1088.90000
    141.65,  2603.10000,  1098.50000
    142.14,  2603.60000,  1111.90000
    142.63,  2618.50000,  1136.00000
    143.13,  2612.90000,  1165.60000
    143.62,  2651.90000,  1177.30000
    144.11,  2645.30000,  1201.70000
    144.60,  2603.50000,  1217.40000
    145.09,  2582.70000,  1236.00000
    145.58,  2637.70000,  1253.10000
    146.07,  2661.20000,  1260.60000
    146.56,  2685.20000,  1262.40000
    147.06,  2676.10000,  1276.20000
    147.55,  2640.20000,  1306.70000
    148.04,  2590.80000,  1337.70000
    148.53,  2639.70000,  1348.80000
    149.02,  2638.30000,  1349.80000
    149.51,  2725.00000,  1361.80000
    150.00,  2781.10000,  1377.90000
    150.49,  2789.40000,  1429.80000
    150.99,  2763.00000,  1485.00000
    151.48,  2734.10000,  1535.20000
    151.97,  2642.20000,  1582.50000
    152.46,  2650.10000,  1617.30000
    152.95,  2632.70000,  1635.60000
    153.44,  2632.70000,  1653.80000
    153.93,  2649.60000,  1668.80000
    154.42,  2673.90000,  1669.60000
    154.91,  2654.70000,  1675.60000
    155.40,  2648.70000,  1670.00000
    155.89,  2632.10000,  1680.80000
    156.39,  2644.30000,  1692.10000
    156.88,  2615.10000,  1714.50000
    157.37,  2629.50000,  1722.60000
    157.86,  2637.90000,  1751.00000
    158.35,  2648.20000,  1776.20000
    158.84,  2665.80000,  1818.30000
    159.33,  2706.80000,  1863.50000
    159.82,  2716.10000,  1887.10000
    160.31,  2731.00000,  1900.60000
    160.80,  2767.60000,  1911.50000
    161.29,  2726.40000,  1905.10000
    161.78,  2698.00000,  1905.10000
    162.27,  2662.80000,  1912.30000
    162.76,  2659.70000,  1905.80000
    163.25,  2664.20000,  1919.00000
    163.74,  2695.70000,  1935.50000
    164.23,  2702.00000,  1954.00000
    164.72,  2726.50000,  1985.10000
    165.21,  2700.00000,  2006.10000
    165.70,  2682.60000,  2026.50000
    166.20,  2715.00000,  2044.20000
    166.69,  2737.20000,  2051.10000
    167.18,  2750.90000,  2047.20000
    167.67,  2747.30000,  2042.40000
    168.16,  2721.10000,  2018.90000
    168.65,  2671.90000,  2001.40000
    169.14,  2699.90000,  1988.50000
    169.63,  2698.60000,  1984.10000
    170.12,  2692.70000,  1975.20000
    170.61,  2680.70000,  1967.20000
    171.10,  2735.80000,  1950.20000
    171.59,  2729.70000,  1941.10000
    172.08,  2741.50000,  1929.50000
    172.57,  2734.20000,  1930.90000
    173.06,  2731.50000,  1932.60000
    173.55,  2728.30000,  1907.90000
    174.04,  2724.00000,  1889.40000
    174.53,  2718.50000,  1889.00000
    175.02,  2714.20000,  1891.90000
    175.50,  2727.70000,  1910.90000
    175.99,  2750.20000,  1923.00000
    176.48,  2776.00000,  1903.40000
    176.97,  2749.60000,  1887.40000
    177.46,  2752.70000,  1871.80000
    177.95,  2729.20000,  1862.90000
    178.44,  2715.10000,  1860.90000
    178.93,  2694.40000,  1860.70000
    179.42,  2713.80000,  1850.60000
    179.91,  2733.00000,  1841.20000
    180.40,  2748.80000,  1832.30000
    180.89,  2761.40000,  1835.30000
    181.38,  2748.90000,  1845.70000
    181.87,  2736.20000,  1866.00000
    182.36,  2734.20000,  1873.10000
    182.85,  2709.30000,  1878.80000
    183.34,  2728.20000,  1875.60000
    183.83,  2734.10000,  1870.20000
    184.32,  2731.60000,  1851.80000
    184.81,  2768.70000,  1850.30000
    185.29,  2762.90000,  1836.60000
    185.78,  2730.10000,  1831.70000
    186.27,  2736.70000,  1829.60000
    186.76,  2720.50000,  1829.70000
    187.25,  2695.30000,  1815.70000
    187.74,  2763.20000,  1811.70000
    188.23,  2794.30000,  1800.00000
    188.72,  2818.40000,  1794.20000
    189.21,  2809.60000,  1799.20000
    189.70,  2779.90000,  1801.90000
    190.19,  2740.80000,  1812.40000
    190.67,  2731.00000,  1808.90000
    191.16,  2732.90000,  1807.20000
    191.65,  2741.50000,  1798.80000
    192.14,  2729.10000,  1790.80000
    192.63,  2749.50000,  1778.00000
    193.12,  2761.30000,  1775.80000
    193.61,  2743.20000,  1770.00000
    194.10,  2762.70000,  1766.60000
    194.59,  2756.70000,  1765.20000
    195.07,  2752.50000,  1764.70000
    195.56,  2761.10000,  1771.20000
    196.05,  2740.70000,  1778.40000
    196.54,  2722.80000,  1795.40000
    197.03,  2749.00000,  1794.10000
    197.52,  2789.00000,  1788.40000
    198.01,  2804.50000,  1776.80000
    198.49,  2806.40000,  1774.30000
    198.98,  2792.90000,  1770.90000
    199.47,  2752.00000,  1768.80000
    199.96,  2744.20000,  1758.70000
    200.45,  2755.50000,  1756.30000
    200.94,  2735.30000,  1752.00000
    201.43,  2750.40000,  1737.60000
    201.91,  2747.10000,  1732.60000
    202.40,  2745.10000,  1717.10000
    202.89,  2745.60000,  1711.60000
    203.38,  2750.70000,  1729.20000
    203.87,  2738.60000,  1739.50000
    204.36,  2729.20000,  1748.20000
    204.84,  2720.40000,  1772.00000
    205.33,  2739.80000,  1767.00000
    205.82,  2756.20000,  1760.40000
    206.31,  2755.00000,  1755.20000
    206.80,  2752.30000,  1749.20000
    207.28,  2756.70000,  1759.10000
    207.77,  2761.40000,  1774.80000
    208.26,  2777.80000,  1767.90000
    208.75,  2783.90000,  1767.50000
    209.24,  2767.80000,  1766.30000
    209.72,  2779.60000,  1766.70000
    210.21,  2789.00000,  1783.50000
    210.70,  2768.70000,  1796.10000
    211.19,  2782.90000,  1811.20000
    211.68,  2786.30000,  1822.40000
    212.16,  2791.20000,  1824.60000
    212.65,  2805.10000,  1808.80000
    213.14,  2788.70000,  1805.10000
    213.63,  2779.00000,  1799.10000
    214.12,  2760.10000,  1801.50000
    214.60,  2769.10000,  1805.60000
    215.09,  2790.60000,  1804.40000
    215.58,  2794.30000,  1806.10000
    216.07,  2782.40000,  1818.90000
    216.55,  2789.30000,  1829.40000
    217.04,  2723.90000,  1839.50000
    217.53,  2718.10000,  1866.90000
    218.02,  2721.00000,  1881.80000
    218.50,  2732.30000,  1902.80000
    218.99,  2748.60000,  1929.80000
    219.48,  2783.20000,  1937.70000
    219.97,  2747.40000,  1958.10000
    220.45,  2756.10000,  1983.70000
    220.94,  2751.60000,  2003.90000
    221.43,  2761.80000,  2033.40000
    221.92,  2770.80000,  2075.40000
    222.40,  2766.70000,  2097.00000
    222.89,  2760.60000,  2113.00000
    223.38,  2787.30000,  2130.10000
    223.86,  2814.80000,  2144.20000
    224.35,  2836.40000,  2164.30000
    224.84,  2832.50000,  2187.90000
    225.33,  2812.20000,  2203.20000
    225.81,  2777.10000,  2212.60000
    226.30,  2755.00000,  2232.40000
    226.79,  2751.40000,  2243.30000
    227.27,  2739.10000,  2255.70000
    227.76,  2750.00000,  2245.20000
    228.25,  2781.50000,  2237.70000
    228.74,  2799.60000,  2219.40000
    229.22,  2821.40000,  2188.80000
    229.71,  2812.80000,  2162.60000
    230.20,  2786.80000,  2140.90000
    230.68,  2775.30000,  2112.30000
    231.17,  2756.40000,  2098.70000
    231.66,  2732.90000,  2066.90000
    232.14,  2734.00000,  2023.10000
    232.63,  2731.90000,  1976.30000
    233.12,  2759.70000,  1932.20000
    233.60,  2787.00000,  1892.40000
    234.09,  2767.20000,  1866.30000
    234.58,  2753.00000,  1841.30000
    235.06,  2752.40000,  1820.10000
    235.55,  2748.60000,  1788.70000
    236.04,  2741.10000,  1779.00000
    236.52,  2761.30000,  1751.10000
    237.01,  2740.80000,  1742.60000
    237.50,  2778.70000,  1732.30000
    237.98,  2773.80000,  1720.80000
    238.47,  2833.00000,  1691.40000
    238.96,  2839.90000,  1679.10000
    239.44,  2836.30000,  1651.50000
    239.93,  2823.10000,  1662.10000
    240.41,  2775.80000,  1661.40000
    240.90,  2706.80000,  1662.50000
    241.39,  2738.00000,  1651.80000
    241.87,  2777.60000,  1649.50000
    242.36,  2800.20000,  1631.10000
    242.85,  2844.40000,  1632.80000
    243.33,  2835.50000,  1618.70000
    243.82,  2810.40000,  1613.80000
    244.30,  2786.20000,  1609.80000
    244.79,  2786.30000,  1610.80000
    245.28,  2767.70000,  1601.00000
    245.76,  2771.10000,  1598.60000
    246.25,  2760.20000,  1583.70000
    246.74,  2777.60000,  1582.00000
    247.22,  2800.40000,  1579.00000
    247.71,  2796.60000,  1587.40000
    248.19,  2779.80000,  1596.20000
    248.68,  2777.70000,  1606.30000
    249.16,  2744.50000,  1592.80000
    249.65,  2769.70000,  1594.80000
    250.14,  2793.10000,  1583.10000
    250.62,  2776.10000,  1582.90000
    251.11,  2752.80000,  1588.60000
    251.59,  2739.30000,  1589.80000
    252.08,  2726.90000,  1584.00000
    252.57,  2733.90000,  1593.10000
    253.05,  2739.80000,  1592.80000
    253.54,  2778.40000,  1581.80000
    254.02,  2800.20000,  1578.40000
    254.51,  2809.30000,  1563.40000
    254.99,  2803.90000,  1560.70000
    255.48,  2774.90000,  1559.90000
    255.96,  2745.10000,  1568.60000
    256.45,  2779.80000,  1550.40000
    256.94,  2781.80000,  1545.30000
    257.42,  2782.00000,  1538.10000
    257.91,  2787.80000,  1545.50000
    258.39,  2790.40000,  1543.70000
    258.88,  2776.20000,  1545.60000
    259.36,  2792.90000,  1536.40000
    259.85,  2782.90000,  1542.30000
    260.33,  2792.10000,  1549.90000
    260.82,  2819.00000,  1554.10000
    261.30,  2833.20000,  1549.20000
    261.79,  2815.20000,  1533.70000
    262.27,  2790.90000,  1538.10000
    262.76,  2772.20000,  1537.80000
    263.24,  2764.90000,  1549.00000
    263.73,  2791.90000,  1550.80000
    264.22,  2790.80000,  1554.90000
    264.70,  2859.50000,  1548.20000
    265.19,  2879.10000,  1563.10000
    265.67,  2875.70000,  1563.30000
    266.16,  2848.70000,  1566.00000
    266.64,  2819.30000,  1568.30000
    267.13,  2756.80000,  1562.60000
    267.61,  2761.90000,  1560.80000
    268.10,  2775.00000,  1561.30000
    268.58,  2778.10000,  1557.50000
    269.06,  2783.10000,  1557.70000
    269.55,  2803.10000,  1564.60000
    270.03,  2812.30000,  1568.60000
    270.52,  2803.10000,  1588.70000
    271.00,  2810.80000,  1598.00000
    271.49,  2804.80000,  1598.20000
    271.97,  2800.60000,  1604.00000
    272.46,  2814.40000,  1611.20000
    272.94,  2818.80000,  1615.50000
    273.43,  2811.80000,  1625.70000
    273.91,  2786.20000,  1634.20000
    274.40,  2768.70000,  1635.30000
    274.88,  2752.20000,  1637.30000
    275.37,  2757.10000,  1641.30000
    275.85,  2761.60000,  1642.70000
    276.33,  2772.40000,  1642.90000
    276.82,  2788.10000,  1657.70000
    277.30,  2796.60000,  1669.20000
    277.79,  2791.00000,  1677.40000
    278.27,  2801.50000,  1680.80000
    278.76,  2815.40000,  1683.80000
    279.24,  2816.40000,  1695.00000
    279.73,  2813.60000,  1708.50000
    280.21,  2802.40000,  1721.60000
    280.69,  2780.80000,  1730.20000
    281.18,  2783.70000,  1739.50000
    281.66,  2804.20000,  1739.50000
    282.15,  2835.00000,  1747.20000
    282.63,  2827.50000,  1753.40000
    283.11,  2818.20000,  1757.80000
    283.60,  2811.90000,  1774.50000
    284.08,  2818.40000,  1794.30000
    284.57,  2797.00000,  1810.20000
    285.05,  2797.10000,  1814.20000
    285.53,  2777.50000,  1814.90000
    286.02,  2751.60000,  1807.50000
    286.50,  2768.00000,  1817.00000
    286.99,  2789.80000,  1815.00000
    287.47,  2785.50000,  1817.00000
    287.95,  2782.80000,  1816.40000
    288.44,  2773.50000,  1820.50000
    288.92,  2760.20000,  1829.80000
    289.41,  2770.40000,  1835.20000
    289.89,  2795.10000,  1828.80000
    290.37,  2813.40000,  1811.60000
    290.86,  2836.90000,  1808.50000
    291.34,  2799.20000,  1816.20000
    291.82,  2783.30000,  1807.10000
    292.31,  2764.10000,  1781.80000
    292.79,  2772.20000,  1777.50000
    293.28,  2779.90000,  1758.10000
    293.76,  2788.70000,  1762.80000
    294.24,  2783.00000,  1768.50000
    294.73,  2808.70000,  1755.10000
    295.21,  2819.90000,  1733.80000
    295.69,  2832.20000,  1728.10000
    296.18,  2811.30000,  1706.50000
    296.66,  2770.00000,  1692.60000
    297.14,  2759.40000,  1682.50000
    297.63,  2774.20000,  1667.70000
    298.11,  2788.00000,  1659.60000
    298.59,  2820.80000,  1657.80000
    299.08,  2830.30000,  1650.40000
    299.56,  2827.90000,  1636.40000
    300.04,  2840.20000,  1635.20000
    300.53,  2843.00000,  1620.80000
    301.01,  2838.50000,  1606.10000
    301.49,  2825.10000,  1606.30000
    301.98,  2795.70000,  1599.60000
    302.46,  2776.30000,  1584.30000
    302.94,  2776.60000,  1572.90000
    303.42,  2774.30000,  1565.60000
    303.91,  2761.30000,  1550.60000
    304.39,  2741.00000,  1546.40000
    304.87,  2746.50000,  1530.80000
    305.36,  2775.60000,  1525.40000
    305.84,  2810.90000,  1520.40000
    306.32,  2843.90000,  1529.10000
    306.81,  2824.50000,  1524.90000
    307.29,  2792.20000,  1521.60000
    307.77,  2779.90000,  1503.20000
    308.25,  2786.00000,  1495.50000
    308.74,  2800.30000,  1487.10000
    309.22,  2803.00000,  1478.80000
    309.70,  2791.70000,  1465.80000
    310.18,  2784.90000,  1451.30000
    310.67,  2788.60000,  1448.70000
    311.15,  2809.10000,  1437.90000
    311.63,  2816.10000,  1432.50000
    312.12,  2817.60000,  1435.30000
    312.60,  2790.30000,  1427.80000
    313.08,  2772.60000,  1412.60000
    313.56,  2758.50000,  1416.40000
    314.05,  2758.70000,  1413.70000
    314.53,  2778.10000,  1407.30000
    315.01,  2836.30000,  1402.00000
    315.49,  2833.20000,  1398.40000
    315.98,  2837.10000,  1389.20000
    316.46,  2807.30000,  1396.60000
    316.94,  2764.40000,  1405.90000
    317.42,  2751.60000,  1402.90000
    317.90,  2758.70000,  1394.40000
    318.39,  2734.00000,  1402.50000
    318.87,  2780.50000,  1398.40000
    319.35,  2791.60000,  1405.20000
    319.83,  2802.90000,  1399.90000
    320.32,  2819.00000,  1393.10000
    320.80,  2827.50000,  1381.50000
    321.28,  2784.40000,  1388.10000
    321.76,  2828.80000,  1374.90000
    322.24,  2830.00000,  1363.60000
    322.73,  2850.10000,  1349.20000
    323.21,  2856.20000,  1349.90000
    323.69,  2857.40000,  1351.50000
    324.17,  2802.70000,  1367.00000
    324.65,  2771.20000,  1365.60000
    325.14,  2772.60000,  1365.60000
    325.62,  2787.40000,  1358.50000
    326.10,  2840.90000,  1356.00000
    326.58,  2856.90000,  1363.40000
    327.06,  2815.60000,  1365.00000
    327.55,  2820.10000,  1369.10000
    328.03,  2845.10000,  1375.70000
    328.51,  2855.20000,  1373.40000
    328.99,  2876.70000,  1366.10000
    329.47,  2860.50000,  1366.90000
    329.95,  2783.60000,  1359.90000
    330.44,  2792.20000,  1358.00000
    330.92,  2759.70000,  1363.40000
    331.40,  2747.40000,  1356.60000
    331.88,  2742.00000,  1351.90000
    332.36,  2753.10000,  1346.50000
    332.84,  2770.00000,  1352.50000
    333.33,  2817.80000,  1347.10000
    333.81,  2821.30000,  1355.70000
    334.29,  2839.30000,  1342.10000
    334.77,  2844.80000,  1338.10000
    335.25,  2833.10000,  1329.60000
    335.73,  2841.70000,  1329.90000
    336.21,  2836.00000,  1323.50000
    336.69,  2814.30000,  1332.30000
    337.18,  2800.00000,  1329.20000
    337.66,  2783.30000,  1326.30000
    338.14,  2756.00000,  1335.60000
    338.62,  2745.00000,  1333.60000
    339.10,  2766.50000,  1338.50000
    339.58,  2812.60000,  1331.20000
    340.06,  2833.50000,  1316.20000
    340.54,  2846.60000,  1305.60000
    341.03,  2830.00000,  1313.20000
    341.51,  2798.70000,  1309.10000
    341.99,  2793.30000,  1318.90000
    342.47,  2809.30000,  1307.80000
    342.95,  2810.10000,  1300.50000
    343.43,  2807.30000,  1306.70000
    343.91,  2808.00000,  1311.30000
    344.39,  2783.70000,  1311.00000
    344.87,  2764.80000,  1311.80000
    345.35,  2779.40000,  1303.70000
    345.84,  2790.30000,  1304.30000
    346.32,  2829.40000,  1308.60000
    346.80,  2848.20000,  1305.50000
    347.28,  2848.80000,  1298.10000
    347.76,  2820.70000,  1298.10000
    348.24,  2816.60000,  1298.80000
    348.72,  2837.60000,  1304.10000
    349.20,  2857.40000,  1306.30000
    349.68,  2841.70000,  1308.20000
    350.16,  2809.60000,  1309.80000
    350.64,  2761.00000,  1311.30000
    351.12,  2750.00000,  1311.00000
    351.60,  2806.90000,  1309.60000
    352.08,  2849.60000,  1306.00000
    352.56,  2876.90000,  1301.40000
    353.04,  2870.50000,  1293.80000
    353.53,  2845.30000,  1296.30000
    354.01,  2820.80000,  1301.40000
    354.49,  2832.50000,  1302.90000
    354.97,  2829.10000,  1297.90000
    355.45,  2835.90000,  1284.60000
    355.93,  2816.30000,  1284.40000
    356.41,  2830.70000,  1297.90000
    356.89,  2811.70000,  1305.10000
    357.37,  2821.50000,  1309.80000
    357.85,  2796.40000,  1297.90000
    358.33,  2788.60000,  1280.90000
    358.81,  2765.40000,  1283.80000
    359.29,  2784.20000,  1288.10000
    359.77,  2800.50000,  1301.80000
    360.25,  2823.90000,  1312.50000
    360.73,  2817.80000,  1311.30000
    361.21,  2810.20000,  1311.80000
    361.69,  2818.50000,  1311.20000
    362.17,  2815.90000,  1322.30000
    362.65,  2825.30000,  1330.30000
    363.13,  2826.40000,  1331.60000
    363.61,  2832.90000,  1318.40000
    364.09,  2803.80000,  1312.00000
    364.57,  2804.20000,  1301.70000
    365.05,  2803.70000,  1303.30000
    365.53,  2789.60000,  1300.30000
    366.01,  2808.70000,  1302.40000
    366.49,  2855.20000,  1290.20000
    366.97,  2812.00000,  1293.90000
    367.45,  2824.80000,  1305.10000
    367.93,  2849.80000,  1311.30000
