2D Measure spectrum data V5.74

<< MEASURE 1 >>
Data count = 2048
Exposure time = 30000 msec
Average = 10
Inspected time = 2020/10/19 19:11

Wave-dcm-1,Dark spec.  ,Spectrum
    108.17,  2239.60000,   668.00000
    108.66,  2246.50000,   664.20000
    109.15,  2258.30000,   654.20000
    109.65,  2288.20000,   636.50000
    110.14,  2298.70000,   622.00000
    110.63,  2307.60000,   614.80000
    111.13,  2318.20000,   612.30000
    111.62,  2304.30000,   617.10000
    112.11,  2313.40000,   613.70000
    112.60,  2340.00000,   605.30000
    113.10,  2330.50000,   604.30000
    113.59,  2354.80000,   598.70000
    114.08,  2366.50000,   603.00000
    114.58,  2351.10000,   613.80000
    115.07,  2386.30000,   617.60000
    115.56,  2405.10000,   613.60000
    116.06,  2398.20000,   616.90000
    116.55,  2406.90000,   604.60000
    117.04,  2392.80000,   606.90000
    117.53,  2369.90000,   603.00000
    118.03,  2402.50000,   611.20000
    118.52,  2411.80000,   611.90000
    119.01,  2407.60000,   619.10000
    119.51,  2493.80000,   632.10000
    120.00,  2579.90000,   647.50000
    120.49,  2615.20000,   659.50000
    120.98,  2616.30000,   673.50000
    121.48,  2538.50000,   679.20000
    121.97,  2436.80000,   689.20000
    122.46,  2420.20000,   708.60000
    122.95,  2447.20000,   719.60000
    123.45,  2477.60000,   748.50000
    123.94,  2487.40000,   755.90000
    124.43,  2512.10000,   772.20000
    124.92,  2542.00000,   795.50000
    125.42,  2538.90000,   811.60000
    125.91,  2558.60000,   830.10000
    126.40,  2550.20000,   848.50000
    126.89,  2527.20000,   856.00000
    127.39,  2519.60000,   857.00000
    127.88,  2511.00000,   871.10000
    128.37,  2505.80000,   879.70000
    128.86,  2528.00000,   899.20000
    129.35,  2519.50000,   927.80000
    129.85,  2529.10000,   955.40000
    130.34,  2521.80000,   973.60000
    130.83,  2528.60000,   992.50000
    131.32,  2546.10000,   989.70000
    131.81,  2554.90000,   996.30000
    132.31,  2546.30000,  1011.90000
    132.80,  2546.10000,  1012.40000
    133.29,  2519.50000,  1023.60000
    133.78,  2525.80000,  1034.90000
    134.27,  2544.70000,  1034.10000
    134.77,  2554.50000,  1053.50000
    135.26,  2576.00000,  1068.90000
    135.75,  2571.10000,  1075.50000
    136.24,  2582.60000,  1089.30000
    136.73,  2572.90000,  1094.20000
    137.23,  2592.40000,  1093.90000
    137.72,  2588.80000,  1102.70000
    138.21,  2588.10000,  1107.10000
    138.70,  2571.40000,  1106.30000
    139.19,  2605.40000,  1106.50000
    139.68,  2594.20000,  1113.10000
    140.18,  2601.10000,  1114.80000
    140.67,  2610.90000,  1135.10000
    141.16,  2610.60000,  1143.60000
    141.65,  2593.70000,  1159.10000
    142.14,  2589.80000,  1161.50000
    142.63,  2603.00000,  1182.10000
    143.13,  2607.60000,  1186.10000
    143.62,  2647.80000,  1202.00000
    144.11,  2650.50000,  1206.20000
    144.60,  2614.10000,  1217.60000
    145.09,  2605.20000,  1214.90000
    145.58,  2659.50000,  1218.00000
    146.07,  2676.00000,  1232.20000
    146.56,  2684.90000,  1245.20000
    147.06,  2666.80000,  1272.80000
    147.55,  2634.30000,  1279.30000
    148.04,  2597.70000,  1289.40000
    148.53,  2629.40000,  1296.40000
    149.02,  2604.80000,  1321.10000
    149.51,  2681.80000,  1340.30000
    150.00,  2735.10000,  1376.00000
    150.49,  2761.80000,  1391.10000
    150.99,  2758.20000,  1417.80000
    151.48,  2736.30000,  1439.80000
    151.97,  2653.50000,  1462.70000
    152.46,  2657.40000,  1484.50000
    152.95,  2642.30000,  1487.50000
    153.44,  2641.20000,  1492.20000
    153.93,  2658.60000,  1491.30000
    154.42,  2679.70000,  1495.10000
    154.91,  2661.30000,  1503.40000
    155.40,  2641.00000,  1521.10000
    155.89,  2624.50000,  1523.70000
    156.39,  2640.20000,  1535.30000
    156.88,  2616.20000,  1538.40000
    157.37,  2633.40000,  1544.50000
    157.86,  2645.10000,  1564.00000
    158.35,  2651.80000,  1593.90000
    158.84,  2664.80000,  1626.30000
    159.33,  2711.60000,  1649.50000
    159.82,  2713.20000,  1669.40000
    160.31,  2727.10000,  1677.50000
    160.80,  2763.20000,  1702.40000
    161.29,  2720.80000,  1710.80000
    161.78,  2691.10000,  1708.30000
    162.27,  2662.40000,  1702.10000
    162.76,  2658.10000,  1701.20000
    163.25,  2663.70000,  1718.50000
    163.74,  2691.20000,  1753.30000
    164.23,  2699.20000,  1766.00000
    164.72,  2723.20000,  1781.10000
    165.21,  2700.20000,  1794.40000
    165.70,  2688.40000,  1806.50000
    166.20,  2724.40000,  1828.80000
    166.69,  2739.90000,  1849.20000
    167.18,  2751.50000,  1856.10000
    167.67,  2746.30000,  1854.90000
    168.16,  2716.10000,  1844.30000
    168.65,  2665.90000,  1832.40000
    169.14,  2697.20000,  1817.90000
    169.63,  2697.20000,  1818.10000
    170.12,  2687.20000,  1821.30000
    170.61,  2680.60000,  1813.50000
    171.10,  2739.50000,  1800.00000
    171.59,  2735.40000,  1795.70000
    172.08,  2750.40000,  1786.30000
    172.57,  2745.00000,  1786.70000
    173.06,  2738.30000,  1788.10000
    173.55,  2728.50000,  1787.30000
    174.04,  2718.70000,  1785.50000
    174.53,  2709.40000,  1791.20000
    175.02,  2704.50000,  1793.00000
    175.50,  2728.20000,  1802.60000
    175.99,  2759.40000,  1807.20000
    176.48,  2791.10000,  1796.10000
    176.97,  2765.30000,  1785.20000
    177.46,  2769.20000,  1765.40000
    177.95,  2734.30000,  1757.00000
    178.44,  2722.00000,  1744.80000
    178.93,  2702.60000,  1749.80000
    179.42,  2721.90000,  1744.30000
    179.91,  2733.60000,  1735.60000
    180.40,  2745.70000,  1745.60000
    180.89,  2749.30000,  1758.40000
    181.38,  2734.70000,  1771.20000
    181.87,  2720.00000,  1795.10000
    182.36,  2712.50000,  1813.30000
    182.85,  2687.30000,  1810.20000
    183.34,  2712.80000,  1816.00000
    183.83,  2724.10000,  1807.00000
    184.32,  2720.70000,  1798.60000
    184.81,  2762.50000,  1776.40000
    185.29,  2767.00000,  1768.60000
    185.78,  2743.70000,  1760.00000
    186.27,  2753.20000,  1756.90000
    186.76,  2738.70000,  1754.90000
    187.25,  2707.10000,  1749.60000
    187.74,  2774.30000,  1746.20000
    188.23,  2810.50000,  1743.50000
    188.72,  2826.00000,  1755.90000
    189.21,  2810.90000,  1763.70000
    189.70,  2782.70000,  1765.20000
    190.19,  2739.70000,  1776.10000
    190.67,  2732.10000,  1779.70000
    191.16,  2736.80000,  1778.90000
    191.65,  2731.60000,  1788.00000
    192.14,  2720.00000,  1780.30000
    192.63,  2747.00000,  1775.40000
    193.12,  2756.90000,  1779.00000
    193.61,  2742.70000,  1779.90000
    194.10,  2757.20000,  1781.00000
    194.59,  2749.20000,  1773.60000
    195.07,  2749.20000,  1774.10000
    195.56,  2765.80000,  1776.40000
    196.05,  2745.60000,  1774.80000
    196.54,  2731.60000,  1786.30000
    197.03,  2747.80000,  1785.30000
    197.52,  2794.50000,  1762.10000
    198.01,  2808.90000,  1749.80000
    198.49,  2807.40000,  1734.80000
    198.98,  2799.60000,  1715.80000
    199.47,  2757.00000,  1717.10000
    199.96,  2744.90000,  1722.50000
    200.45,  2761.30000,  1722.40000
    200.94,  2743.50000,  1717.30000
    201.43,  2739.60000,  1720.90000
    201.91,  2736.60000,  1708.70000
    202.40,  2726.90000,  1705.20000
    202.89,  2733.00000,  1699.60000
    203.38,  2747.50000,  1705.30000
    203.87,  2742.00000,  1703.30000
    204.36,  2731.00000,  1698.70000
    204.84,  2730.80000,  1694.00000
    205.33,  2753.50000,  1688.60000
    205.82,  2771.90000,  1687.50000
    206.31,  2764.30000,  1698.50000
    206.80,  2752.30000,  1707.60000
    207.28,  2758.70000,  1700.60000
    207.77,  2763.00000,  1708.80000
    208.26,  2779.40000,  1709.20000
    208.75,  2781.30000,  1712.50000
    209.24,  2758.60000,  1714.20000
    209.72,  2768.80000,  1713.20000
    210.21,  2784.40000,  1710.40000
    210.70,  2766.90000,  1719.70000
    211.19,  2786.10000,  1730.10000
    211.68,  2796.50000,  1733.20000
    212.16,  2807.70000,  1732.80000
    212.65,  2818.90000,  1731.80000
    213.14,  2799.60000,  1743.90000
    213.63,  2779.40000,  1749.00000
    214.12,  2750.30000,  1764.00000
    214.60,  2764.90000,  1759.10000
    215.09,  2789.20000,  1756.40000
    215.58,  2793.70000,  1756.10000
    216.07,  2788.00000,  1774.90000
    216.55,  2791.90000,  1793.00000
    217.04,  2725.90000,  1825.00000
    217.53,  2722.50000,  1837.60000
    218.02,  2724.10000,  1843.10000
    218.50,  2736.90000,  1847.30000
    218.99,  2757.20000,  1862.20000
    219.48,  2780.30000,  1887.40000
    219.97,  2743.50000,  1926.80000
    220.45,  2746.40000,  1965.50000
    220.94,  2742.10000,  1981.40000
    221.43,  2758.50000,  2005.20000
    221.92,  2785.00000,  2021.40000
    222.40,  2790.70000,  2036.80000
    222.89,  2785.50000,  2053.20000
    223.38,  2810.00000,  2060.00000
    223.86,  2832.10000,  2066.00000
    224.35,  2849.70000,  2093.20000
    224.84,  2854.40000,  2113.90000
    225.33,  2832.20000,  2134.10000
    225.81,  2794.90000,  2148.00000
    226.30,  2774.60000,  2149.40000
    226.79,  2774.60000,  2144.30000
    227.27,  2768.40000,  2139.00000
    227.76,  2776.40000,  2120.70000
    228.25,  2796.10000,  2111.30000
    228.74,  2807.90000,  2093.60000
    229.22,  2828.90000,  2067.80000
    229.71,  2828.00000,  2028.00000
    230.20,  2813.80000,  1996.90000
    230.68,  2802.20000,  1963.20000
    231.17,  2779.50000,  1946.80000
    231.66,  2746.20000,  1918.00000
    232.14,  2740.60000,  1893.40000
    232.63,  2734.60000,  1861.30000
    233.12,  2762.20000,  1834.10000
    233.60,  2788.80000,  1801.10000
    234.09,  2767.00000,  1776.10000
    234.58,  2750.90000,  1748.10000
    235.06,  2754.80000,  1726.60000
    235.55,  2745.10000,  1711.00000
    236.04,  2743.20000,  1694.10000
    236.52,  2759.00000,  1683.60000
    237.01,  2738.60000,  1662.00000
    237.50,  2773.10000,  1644.10000
    237.98,  2767.90000,  1625.70000
    238.47,  2822.30000,  1609.70000
    238.96,  2828.50000,  1601.20000
    239.44,  2823.90000,  1597.60000
    239.93,  2817.90000,  1594.20000
    240.41,  2777.60000,  1585.80000
    240.90,  2709.30000,  1573.30000
    241.39,  2740.80000,  1558.40000
    241.87,  2781.90000,  1556.90000
    242.36,  2806.50000,  1544.30000
    242.85,  2842.20000,  1549.50000
    243.33,  2830.00000,  1530.70000
    243.82,  2799.40000,  1523.30000
    244.30,  2771.30000,  1518.80000
    244.79,  2778.70000,  1526.10000
    245.28,  2766.10000,  1522.80000
    245.76,  2761.50000,  1530.50000
    246.25,  2749.30000,  1521.90000
    246.74,  2767.50000,  1525.00000
    247.22,  2795.00000,  1520.90000
    247.71,  2793.60000,  1525.10000
    248.19,  2781.60000,  1531.50000
    248.68,  2778.00000,  1533.40000
    249.16,  2748.30000,  1525.00000
    249.65,  2783.60000,  1512.20000
    250.14,  2801.30000,  1511.70000
    250.62,  2779.30000,  1499.00000
    251.11,  2756.80000,  1499.90000
    251.59,  2742.40000,  1486.50000
    252.08,  2737.20000,  1476.10000
    252.57,  2752.90000,  1470.50000
    253.05,  2752.60000,  1479.20000
    253.54,  2780.30000,  1479.80000
    254.02,  2806.50000,  1475.80000
    254.51,  2813.40000,  1478.00000
    254.99,  2812.00000,  1477.60000
    255.48,  2779.90000,  1484.50000
    255.96,  2749.10000,  1481.50000
    256.45,  2767.00000,  1488.80000
    256.94,  2769.50000,  1482.60000
    257.42,  2768.30000,  1489.40000
    257.91,  2775.60000,  1490.10000
    258.39,  2776.10000,  1489.80000
    258.88,  2765.80000,  1475.90000
    259.36,  2791.60000,  1466.20000
    259.85,  2789.40000,  1468.50000
    260.33,  2802.80000,  1471.00000
    260.82,  2818.60000,  1482.20000
    261.30,  2825.20000,  1484.70000
    261.79,  2802.80000,  1477.80000
    262.27,  2790.20000,  1469.50000
    262.76,  2774.70000,  1474.70000
    263.24,  2770.10000,  1472.50000
    263.73,  2786.80000,  1483.70000
    264.22,  2778.70000,  1483.60000
    264.70,  2840.80000,  1477.70000
    265.19,  2869.30000,  1478.10000
    265.67,  2874.70000,  1482.80000
    266.16,  2852.50000,  1481.60000
    266.64,  2830.70000,  1480.20000
    267.13,  2761.10000,  1485.60000
    267.61,  2762.60000,  1490.80000
    268.10,  2778.70000,  1496.10000
    268.58,  2782.60000,  1501.80000
    269.06,  2788.20000,  1502.50000
    269.55,  2811.30000,  1498.30000
    270.03,  2814.90000,  1512.90000
    270.52,  2809.30000,  1528.10000
    271.00,  2817.80000,  1539.70000
    271.49,  2815.90000,  1539.90000
    271.97,  2815.00000,  1543.00000
    272.46,  2826.30000,  1544.40000
    272.94,  2826.40000,  1543.70000
    273.43,  2817.10000,  1557.50000
    273.91,  2788.10000,  1556.50000
    274.40,  2776.40000,  1561.70000
    274.88,  2764.10000,  1566.90000
    275.37,  2767.00000,  1581.30000
    275.85,  2764.00000,  1592.60000
    276.33,  2768.50000,  1609.40000
    276.82,  2782.00000,  1605.20000
    277.30,  2793.70000,  1617.00000
    277.79,  2790.40000,  1614.90000
    278.27,  2798.10000,  1625.60000
    278.76,  2805.50000,  1639.60000
    279.24,  2812.20000,  1641.80000
    279.73,  2815.20000,  1638.50000
    280.21,  2806.80000,  1640.20000
    280.69,  2779.60000,  1658.70000
    281.18,  2777.80000,  1670.30000
    281.66,  2789.90000,  1693.40000
    282.15,  2827.40000,  1700.50000
    282.63,  2824.50000,  1705.60000
    283.11,  2820.90000,  1699.50000
    283.60,  2815.80000,  1716.20000
    284.08,  2821.20000,  1725.10000
    284.57,  2799.50000,  1731.20000
    285.05,  2802.80000,  1727.50000
    285.53,  2780.10000,  1722.20000
    286.02,  2755.00000,  1710.90000
    286.50,  2775.60000,  1713.10000
    286.99,  2787.50000,  1734.60000
    287.47,  2778.20000,  1735.10000
    287.95,  2775.70000,  1733.90000
    288.44,  2768.80000,  1732.40000
    288.92,  2764.60000,  1725.10000
    289.41,  2780.30000,  1713.60000
    289.89,  2806.30000,  1708.60000
    290.37,  2807.90000,  1705.50000
    290.86,  2828.90000,  1696.40000
    291.34,  2792.20000,  1697.30000
    291.82,  2781.20000,  1685.30000
    292.31,  2762.80000,  1667.60000
    292.79,  2780.40000,  1655.30000
    293.28,  2773.70000,  1652.10000
    293.76,  2789.70000,  1644.30000
    294.24,  2786.00000,  1647.10000
    294.73,  2812.40000,  1628.80000
    295.21,  2821.80000,  1624.70000
    295.69,  2825.80000,  1626.10000
    296.18,  2796.20000,  1612.20000
    296.66,  2763.00000,  1595.30000
    297.14,  2757.80000,  1584.30000
    297.63,  2771.30000,  1571.00000
    298.11,  2787.40000,  1568.70000
    298.59,  2813.50000,  1568.40000
    299.08,  2816.00000,  1563.30000
    299.56,  2818.00000,  1544.60000
    300.04,  2835.70000,  1528.90000
    300.53,  2843.90000,  1512.30000
    301.01,  2841.40000,  1500.00000
    301.49,  2834.60000,  1487.00000
    301.98,  2801.20000,  1480.10000
    302.46,  2778.20000,  1471.40000
    302.94,  2771.20000,  1471.20000
    303.42,  2773.10000,  1454.00000
    303.91,  2757.30000,  1453.30000
    304.39,  2744.70000,  1439.50000
    304.87,  2749.30000,  1426.40000
    305.36,  2770.50000,  1416.10000
    305.84,  2800.10000,  1411.90000
    306.32,  2836.30000,  1403.60000
    306.81,  2822.90000,  1395.80000
    307.29,  2800.40000,  1383.80000
    307.77,  2789.40000,  1382.60000
    308.25,  2789.40000,  1373.10000
    308.74,  2812.40000,  1357.50000
    309.22,  2810.30000,  1353.50000
    309.70,  2796.60000,  1340.90000
    310.18,  2780.40000,  1336.60000
    310.67,  2784.20000,  1345.00000
    311.15,  2792.90000,  1346.60000
    311.63,  2813.40000,  1336.60000
    312.12,  2816.70000,  1329.10000
    312.60,  2791.40000,  1319.50000
    313.08,  2764.70000,  1313.50000
    313.56,  2751.60000,  1310.30000
    314.05,  2750.40000,  1300.00000
    314.53,  2774.50000,  1290.00000
    315.01,  2832.90000,  1279.70000
    315.49,  2832.70000,  1279.30000
    315.98,  2833.20000,  1283.50000
    316.46,  2802.00000,  1294.10000
    316.94,  2762.90000,  1286.80000
    317.42,  2749.60000,  1282.50000
    317.90,  2756.80000,  1270.90000
    318.39,  2741.50000,  1268.50000
    318.87,  2788.30000,  1276.20000
    319.35,  2804.50000,  1292.40000
    319.83,  2812.60000,  1290.40000
    320.32,  2829.30000,  1275.70000
    320.80,  2841.50000,  1262.10000
    321.28,  2804.10000,  1250.10000
    321.76,  2834.60000,  1250.90000
    322.24,  2829.00000,  1259.50000
    322.73,  2842.10000,  1258.80000
    323.21,  2847.60000,  1254.50000
    323.69,  2853.70000,  1259.10000
    324.17,  2807.10000,  1253.60000
    324.65,  2773.10000,  1250.60000
    325.14,  2771.20000,  1255.00000
    325.62,  2777.30000,  1260.60000
    326.10,  2817.30000,  1265.20000
    326.58,  2844.60000,  1260.00000
    327.06,  2813.00000,  1251.30000
    327.55,  2826.30000,  1244.80000
    328.03,  2855.00000,  1241.80000
    328.51,  2858.80000,  1249.70000
    328.99,  2874.60000,  1248.60000
    329.47,  2868.10000,  1242.70000
    329.95,  2798.00000,  1239.70000
    330.44,  2804.90000,  1245.20000
    330.92,  2772.90000,  1245.50000
    331.40,  2753.60000,  1252.20000
    331.88,  2748.50000,  1243.00000
    332.36,  2757.70000,  1242.80000
    332.84,  2791.50000,  1226.30000
    333.33,  2829.90000,  1230.20000
    333.81,  2830.40000,  1228.80000
    334.29,  2830.80000,  1231.70000
    334.77,  2825.70000,  1223.60000
    335.25,  2808.20000,  1230.90000
    335.73,  2825.20000,  1230.00000
    336.21,  2821.20000,  1233.30000
    336.69,  2810.90000,  1226.10000
    337.18,  2804.60000,  1210.40000
    337.66,  2787.50000,  1196.30000
    338.14,  2766.90000,  1189.10000
    338.62,  2756.70000,  1197.00000
    339.10,  2782.00000,  1196.10000
    339.58,  2820.60000,  1194.00000
    340.06,  2837.50000,  1179.50000
    340.54,  2844.00000,  1172.20000
    341.03,  2829.60000,  1176.00000
    341.51,  2793.60000,  1190.60000
    341.99,  2786.90000,  1207.70000
    342.47,  2796.90000,  1204.90000
    342.95,  2791.30000,  1194.80000
    343.43,  2795.40000,  1191.40000
    343.91,  2793.00000,  1190.80000
    344.39,  2774.00000,  1187.60000
    344.87,  2756.20000,  1195.70000
    345.35,  2781.10000,  1179.30000
    345.84,  2788.70000,  1179.30000
    346.32,  2835.20000,  1181.90000
    346.80,  2847.70000,  1187.40000
    347.28,  2841.80000,  1191.60000
    347.76,  2810.90000,  1201.30000
    348.24,  2809.10000,  1200.60000
    348.72,  2828.40000,  1201.60000
    349.20,  2856.80000,  1193.20000
    349.68,  2838.40000,  1188.80000
    350.16,  2804.50000,  1184.60000
    350.64,  2761.70000,  1183.50000
    351.12,  2752.60000,  1183.00000
    351.60,  2814.10000,  1181.20000
    352.08,  2862.20000,  1174.60000
    352.56,  2882.00000,  1168.70000
    353.04,  2868.50000,  1179.80000
    353.53,  2839.80000,  1186.60000
    354.01,  2815.80000,  1188.20000
    354.49,  2832.00000,  1194.10000
    354.97,  2832.90000,  1190.90000
    355.45,  2831.20000,  1191.60000
    355.93,  2803.80000,  1199.30000
    356.41,  2815.30000,  1197.80000
    356.89,  2800.70000,  1185.00000
    357.37,  2821.00000,  1183.00000
    357.85,  2804.60000,  1176.80000
    358.33,  2794.70000,  1183.60000
    358.81,  2768.20000,  1190.90000
    359.29,  2778.50000,  1189.40000
    359.77,  2796.40000,  1184.10000
    360.25,  2822.30000,  1183.10000
    360.73,  2819.90000,  1182.20000
    361.21,  2804.70000,  1184.80000
    361.69,  2805.50000,  1189.80000
    362.17,  2803.60000,  1182.10000
    362.65,  2816.60000,  1189.60000
    363.13,  2826.10000,  1190.90000
    363.61,  2833.70000,  1201.10000
    364.09,  2804.90000,  1192.70000
    364.57,  2806.60000,  1186.50000
    365.05,  2805.00000,  1173.40000
    365.53,  2781.60000,  1188.40000
    366.01,  2796.70000,  1192.40000
    366.49,  2831.20000,  1201.00000
    366.97,  2799.30000,  1194.30000
    367.45,  2819.40000,  1187.50000
    367.93,  2849.90000,  1181.70000
