2D Measure spectrum data V5.74

<< MEASURE 1 >>
Data count = 2048
Exposure time = 30000 msec
Average = 10
Inspected time = 2020/10/19 18:37

Wave-dcm-1,Dark spec.  ,Spectrum
    108.17,  2240.60000,   535.40000
    108.66,  2247.60000,   526.80000
    109.15,  2253.70000,   525.80000
    109.65,  2280.90000,   525.10000
    110.14,  2291.10000,   522.70000
    110.63,  2299.40000,   524.00000
    111.13,  2317.20000,   516.60000
    111.62,  2309.00000,   507.00000
    112.11,  2311.30000,   514.20000
    112.60,  2333.00000,   516.90000
    113.10,  2325.30000,   503.90000
    113.59,  2346.70000,   499.80000
    114.08,  2365.60000,   499.90000
    114.58,  2355.30000,   500.80000
    115.07,  2393.90000,   514.50000
    115.56,  2408.80000,   511.90000
    116.06,  2402.20000,   499.70000
    116.55,  2406.00000,   488.40000
    117.04,  2394.60000,   488.10000
    117.53,  2372.10000,   491.50000
    118.03,  2405.80000,   502.90000
    118.52,  2413.10000,   508.60000
    119.01,  2399.90000,   522.00000
    119.51,  2491.30000,   515.50000
    120.00,  2573.10000,   532.50000
    120.49,  2611.70000,   541.80000
    120.98,  2605.10000,   563.80000
    121.48,  2528.50000,   575.70000
    121.97,  2421.70000,   593.30000
    122.46,  2427.90000,   581.60000
    122.95,  2448.20000,   596.90000
    123.45,  2489.60000,   631.00000
    123.94,  2492.00000,   693.90000
    124.43,  2511.10000,   726.60000
    124.92,  2536.20000,   738.50000
    125.42,  2534.30000,   717.70000
    125.91,  2545.30000,   692.80000
    126.40,  2535.90000,   689.10000
    126.89,  2513.00000,   706.60000
    127.39,  2506.20000,   720.00000
    127.88,  2507.90000,   732.20000
    128.37,  2504.70000,   754.80000
    128.86,  2528.00000,   776.80000
    129.35,  2520.70000,   792.10000
    129.85,  2525.90000,   806.90000
    130.34,  2519.70000,   810.80000
    130.83,  2522.60000,   826.10000
    131.32,  2528.90000,   845.70000
    131.81,  2536.80000,   858.30000
    132.31,  2536.20000,   864.70000
    132.80,  2538.60000,   866.10000
    133.29,  2528.10000,   851.50000
    133.78,  2532.10000,   863.30000
    134.27,  2547.60000,   875.10000
    134.77,  2557.30000,   883.60000
    135.26,  2578.00000,   897.30000
    135.75,  2579.50000,   907.10000
    136.24,  2593.80000,   914.80000
    136.73,  2578.80000,   920.10000
    137.23,  2594.80000,   926.50000
    137.72,  2584.20000,   932.20000
    138.21,  2579.10000,   942.20000
    138.70,  2570.00000,   944.30000
    139.19,  2599.10000,   957.90000
    139.68,  2588.30000,   962.10000
    140.18,  2593.40000,   973.50000
    140.67,  2601.20000,   982.00000
    141.16,  2603.30000,   989.40000
    141.65,  2599.10000,   989.80000
    142.14,  2601.50000,   992.30000
    142.63,  2617.90000,  1003.10000
    143.13,  2621.90000,  1014.60000
    143.62,  2657.60000,  1027.70000
    144.11,  2656.60000,  1044.00000
    144.60,  2615.00000,  1060.80000
    145.09,  2598.90000,  1070.20000
    145.58,  2649.30000,  1085.80000
    146.07,  2673.40000,  1093.50000
    146.56,  2683.70000,  1107.10000
    147.06,  2679.10000,  1108.70000
    147.55,  2641.70000,  1117.40000
    148.04,  2599.80000,  1117.80000
    148.53,  2635.90000,  1132.10000
    149.02,  2612.10000,  1158.00000
    149.51,  2680.90000,  1190.30000
    150.00,  2739.90000,  1213.10000
    150.49,  2758.60000,  1246.60000
    150.99,  2753.20000,  1265.70000
    151.48,  2732.30000,  1295.70000
    151.97,  2645.80000,  1326.00000
    152.46,  2654.60000,  1352.80000
    152.95,  2633.60000,  1372.60000
    153.44,  2636.90000,  1387.80000
    153.93,  2653.20000,  1394.80000
    154.42,  2674.80000,  1395.30000
    154.91,  2654.90000,  1396.10000
    155.40,  2638.70000,  1405.00000
    155.89,  2620.60000,  1411.90000
    156.39,  2643.80000,  1424.10000
    156.88,  2623.60000,  1439.00000
    157.37,  2636.70000,  1458.80000
    157.86,  2643.60000,  1483.60000
    158.35,  2646.40000,  1514.70000
    158.84,  2666.50000,  1536.90000
    159.33,  2714.80000,  1560.40000
    159.82,  2726.40000,  1581.40000
    160.31,  2737.60000,  1605.80000
    160.80,  2771.80000,  1632.00000
    161.29,  2716.50000,  1658.00000
    161.78,  2678.00000,  1670.00000
    162.27,  2646.30000,  1683.20000
    162.76,  2646.60000,  1693.70000
    163.25,  2663.80000,  1702.00000
    163.74,  2702.50000,  1727.50000
    164.23,  2705.90000,  1749.40000
    164.72,  2725.00000,  1779.10000
    165.21,  2703.90000,  1789.60000
    165.70,  2682.30000,  1809.60000
    166.20,  2717.20000,  1821.70000
    166.69,  2739.20000,  1824.10000
    167.18,  2749.60000,  1836.40000
    167.67,  2746.60000,  1864.70000
    168.16,  2724.30000,  1863.20000
    168.65,  2674.40000,  1867.70000
    169.14,  2702.40000,  1856.90000
    169.63,  2703.70000,  1832.30000
    170.12,  2686.80000,  1827.70000
    170.61,  2686.90000,  1808.40000
    171.10,  2740.70000,  1799.40000
    171.59,  2744.30000,  1793.80000
    172.08,  2754.60000,  1808.80000
    172.57,  2744.70000,  1827.80000
    173.06,  2735.10000,  1838.30000
    173.55,  2726.30000,  1835.50000
    174.04,  2707.90000,  1830.30000
    174.53,  2707.30000,  1828.30000
    175.02,  2704.10000,  1845.30000
    175.50,  2725.80000,  1860.40000
    175.99,  2762.00000,  1857.50000
    176.48,  2784.60000,  1863.90000
    176.97,  2756.80000,  1843.70000
    177.46,  2757.40000,  1830.40000
    177.95,  2725.60000,  1821.20000
    178.44,  2709.20000,  1814.40000
    178.93,  2696.00000,  1800.40000
    179.42,  2717.10000,  1798.20000
    179.91,  2729.20000,  1799.40000
    180.40,  2739.20000,  1810.70000
    180.89,  2741.30000,  1823.10000
    181.38,  2729.20000,  1842.80000
    181.87,  2719.70000,  1859.20000
    182.36,  2719.20000,  1873.40000
    182.85,  2686.90000,  1875.40000
    183.34,  2710.40000,  1864.90000
    183.83,  2723.90000,  1841.00000
    184.32,  2725.50000,  1832.00000
    184.81,  2775.00000,  1826.90000
    185.29,  2775.40000,  1820.00000
    185.78,  2742.90000,  1812.20000
    186.27,  2748.50000,  1807.20000
    186.76,  2735.10000,  1799.40000
    187.25,  2702.70000,  1804.20000
    187.74,  2781.50000,  1797.90000
    188.23,  2807.00000,  1795.60000
    188.72,  2838.00000,  1796.30000
    189.21,  2824.40000,  1802.40000
    189.70,  2791.20000,  1806.60000
    190.19,  2741.90000,  1822.30000
    190.67,  2725.80000,  1822.60000
    191.16,  2719.70000,  1828.90000
    191.65,  2736.10000,  1818.50000
    192.14,  2725.70000,  1814.30000
    192.63,  2750.60000,  1810.80000
    193.12,  2764.00000,  1815.90000
    193.61,  2746.10000,  1816.30000
    194.10,  2760.90000,  1811.00000
    194.59,  2751.40000,  1806.90000
    195.07,  2742.60000,  1808.80000
    195.56,  2755.00000,  1821.90000
    196.05,  2741.70000,  1823.80000
    196.54,  2732.70000,  1822.10000
    197.03,  2755.30000,  1816.60000
    197.52,  2795.70000,  1817.90000
    198.01,  2800.20000,  1822.80000
    198.49,  2798.10000,  1830.30000
    198.98,  2790.80000,  1811.00000
    199.47,  2753.20000,  1795.90000
    199.96,  2744.20000,  1786.90000
    200.45,  2761.70000,  1777.90000
    200.94,  2740.30000,  1780.80000
    201.43,  2738.10000,  1786.70000
    201.91,  2727.40000,  1780.90000
    202.40,  2717.60000,  1776.10000
    202.89,  2718.90000,  1771.30000
    203.38,  2733.10000,  1775.30000
    203.87,  2743.30000,  1773.20000
    204.36,  2729.50000,  1786.80000
    204.84,  2729.80000,  1794.50000
    205.33,  2747.60000,  1800.10000
    205.82,  2763.50000,  1802.50000
    206.31,  2758.70000,  1801.90000
    206.80,  2764.20000,  1792.90000
    207.28,  2765.80000,  1789.80000
    207.77,  2780.40000,  1780.60000
    208.26,  2781.80000,  1787.30000
    208.75,  2785.70000,  1779.70000
    209.24,  2768.50000,  1777.50000
    209.72,  2779.50000,  1783.60000
    210.21,  2792.90000,  1799.00000
    210.70,  2777.50000,  1808.20000
    211.19,  2791.60000,  1816.50000
    211.68,  2803.50000,  1818.90000
    212.16,  2809.60000,  1826.70000
    212.65,  2813.60000,  1827.20000
    213.14,  2794.80000,  1835.30000
    213.63,  2778.10000,  1827.30000
    214.12,  2758.50000,  1832.30000
    214.60,  2770.80000,  1845.90000
    215.09,  2786.20000,  1857.30000
    215.58,  2784.20000,  1868.10000
    216.07,  2775.70000,  1881.40000
    216.55,  2780.50000,  1888.70000
    217.04,  2716.30000,  1909.50000
    217.53,  2717.70000,  1918.50000
    218.02,  2719.30000,  1935.50000
    218.50,  2730.00000,  1952.60000
    218.99,  2753.10000,  1968.70000
    219.48,  2777.00000,  1989.60000
    219.97,  2741.30000,  2003.90000
    220.45,  2752.40000,  2019.80000
    220.94,  2757.60000,  2036.30000
    221.43,  2775.70000,  2061.70000
    221.92,  2800.80000,  2074.60000
    222.40,  2792.10000,  2105.50000
    222.89,  2778.00000,  2130.50000
    223.38,  2790.50000,  2162.90000
    223.86,  2812.30000,  2181.50000
    224.35,  2834.70000,  2201.70000
    224.84,  2845.10000,  2200.10000
    225.33,  2832.60000,  2211.80000
    225.81,  2805.50000,  2217.70000
    226.30,  2783.10000,  2227.90000
    226.79,  2775.10000,  2231.40000
    227.27,  2765.10000,  2228.10000
    227.76,  2768.90000,  2220.40000
    228.25,  2797.20000,  2206.30000
    228.74,  2813.40000,  2184.50000
    229.22,  2824.90000,  2166.70000
    229.71,  2811.90000,  2151.30000
    230.20,  2792.20000,  2127.90000
    230.68,  2782.60000,  2097.20000
    231.17,  2779.50000,  2046.40000
    231.66,  2758.00000,  2008.50000
    232.14,  2753.70000,  1973.80000
    232.63,  2742.60000,  1949.80000
    233.12,  2766.40000,  1920.90000
    233.60,  2787.00000,  1899.30000
    234.09,  2768.90000,  1871.50000
    234.58,  2749.10000,  1862.90000
    235.06,  2747.70000,  1847.10000
    235.55,  2741.80000,  1832.20000
    236.04,  2739.50000,  1812.40000
    236.52,  2762.90000,  1786.10000
    237.01,  2747.20000,  1765.90000
    237.50,  2786.90000,  1746.10000
    237.98,  2779.50000,  1734.80000
    238.47,  2832.90000,  1732.40000
    238.96,  2833.30000,  1735.20000
    239.44,  2827.00000,  1717.70000
    239.93,  2818.70000,  1710.10000
    240.41,  2780.30000,  1688.60000
    240.90,  2717.00000,  1683.00000
    241.39,  2747.50000,  1669.60000
    241.87,  2790.60000,  1675.00000
    242.36,  2809.80000,  1674.40000
    242.85,  2851.40000,  1678.20000
    243.33,  2830.00000,  1680.90000
    243.82,  2804.10000,  1681.40000
    244.30,  2775.30000,  1668.10000
    244.79,  2779.20000,  1671.90000
    245.28,  2768.60000,  1665.20000
    245.76,  2771.40000,  1652.70000
    246.25,  2754.00000,  1658.40000
    246.74,  2779.80000,  1651.90000
    247.22,  2797.00000,  1658.40000
    247.71,  2787.40000,  1669.00000
    248.19,  2774.10000,  1668.70000
    248.68,  2765.40000,  1670.60000
    249.16,  2738.30000,  1664.20000
    249.65,  2782.20000,  1649.10000
    250.14,  2798.70000,  1647.50000
    250.62,  2766.80000,  1650.60000
    251.11,  2743.80000,  1645.80000
    251.59,  2722.30000,  1660.00000
    252.08,  2719.60000,  1645.90000
    252.57,  2745.60000,  1637.10000
    253.05,  2753.00000,  1634.20000
    253.54,  2779.60000,  1628.80000
    254.02,  2812.50000,  1616.70000
    254.51,  2816.80000,  1622.80000
    254.99,  2813.80000,  1622.00000
    255.48,  2787.10000,  1618.90000
    255.96,  2750.70000,  1628.80000
    256.45,  2771.80000,  1620.50000
    256.94,  2781.70000,  1609.10000
    257.42,  2775.00000,  1605.60000
    257.91,  2786.20000,  1593.90000
    258.39,  2789.50000,  1585.50000
    258.88,  2770.90000,  1595.10000
    259.36,  2788.10000,  1604.50000
    259.85,  2785.30000,  1605.80000
    260.33,  2793.20000,  1604.80000
    260.82,  2818.70000,  1597.00000
    261.30,  2825.20000,  1593.90000
    261.79,  2804.00000,  1593.50000
    262.27,  2776.20000,  1605.40000
    262.76,  2763.00000,  1599.70000
    263.24,  2767.50000,  1598.00000
    263.73,  2799.40000,  1603.30000
    264.22,  2795.70000,  1602.60000
    264.70,  2863.40000,  1603.30000
    265.19,  2879.30000,  1615.90000
    265.67,  2875.60000,  1619.90000
    266.16,  2852.60000,  1621.60000
    266.64,  2817.10000,  1636.60000
    267.13,  2748.60000,  1644.90000
    267.61,  2752.40000,  1652.30000
    268.10,  2771.00000,  1658.80000
    268.58,  2772.50000,  1655.40000
    269.06,  2783.10000,  1643.80000
    269.55,  2801.20000,  1642.50000
    270.03,  2812.20000,  1645.30000
    270.52,  2811.10000,  1641.80000
    271.00,  2821.40000,  1646.90000
    271.49,  2806.90000,  1659.50000
    271.97,  2797.90000,  1674.90000
    272.46,  2809.80000,  1685.40000
    272.94,  2806.80000,  1702.90000
    273.43,  2804.90000,  1702.70000
    273.91,  2776.70000,  1714.70000
    274.40,  2766.30000,  1718.30000
    274.88,  2757.00000,  1714.10000
    275.37,  2771.00000,  1706.40000
    275.85,  2770.70000,  1715.50000
    276.33,  2772.00000,  1734.40000
    276.82,  2776.40000,  1754.80000
    277.30,  2785.30000,  1771.70000
    277.79,  2783.20000,  1765.50000
    278.27,  2797.90000,  1757.60000
    278.76,  2808.80000,  1770.40000
    279.24,  2813.50000,  1788.20000
    279.73,  2815.30000,  1803.60000
    280.21,  2807.60000,  1823.30000
    280.69,  2788.40000,  1823.10000
    281.18,  2786.70000,  1829.90000
    281.66,  2799.70000,  1846.60000
    282.15,  2836.20000,  1853.50000
    282.63,  2832.60000,  1856.70000
    283.11,  2827.80000,  1859.80000
    283.60,  2822.50000,  1871.40000
    284.08,  2837.60000,  1871.30000
    284.57,  2812.60000,  1878.00000
    285.05,  2808.10000,  1887.70000
    285.53,  2778.10000,  1893.10000
    286.02,  2753.80000,  1886.00000
    286.50,  2768.80000,  1895.60000
    286.99,  2794.90000,  1893.70000
    287.47,  2781.00000,  1901.60000
    287.95,  2772.40000,  1910.70000
    288.44,  2769.80000,  1907.90000
    288.92,  2767.70000,  1890.00000
    289.41,  2780.20000,  1881.10000
    289.89,  2800.90000,  1876.80000
    290.37,  2805.90000,  1875.10000
    290.86,  2820.70000,  1881.30000
    291.34,  2796.80000,  1881.70000
    291.82,  2782.20000,  1873.10000
    292.31,  2766.00000,  1858.70000
    292.79,  2784.40000,  1840.00000
    293.28,  2786.20000,  1825.90000
    293.76,  2794.00000,  1820.20000
    294.24,  2796.50000,  1821.90000
    294.73,  2812.00000,  1815.30000
    295.21,  2810.00000,  1810.70000
    295.69,  2823.20000,  1798.10000
    296.18,  2795.30000,  1785.20000
    296.66,  2760.80000,  1767.70000
    297.14,  2759.40000,  1761.00000
    297.63,  2774.60000,  1748.90000
    298.11,  2787.80000,  1743.20000
    298.59,  2821.70000,  1738.10000
    299.08,  2822.30000,  1737.20000
    299.56,  2819.80000,  1723.30000
    300.04,  2841.10000,  1704.50000
    300.53,  2850.30000,  1685.90000
    301.01,  2848.80000,  1671.50000
    301.49,  2834.70000,  1672.70000
    301.98,  2803.40000,  1671.80000
    302.46,  2775.80000,  1666.20000
    302.94,  2781.70000,  1648.30000
    303.42,  2781.10000,  1638.20000
    303.91,  2767.50000,  1622.20000
    304.39,  2744.40000,  1618.40000
    304.87,  2756.80000,  1601.50000
    305.36,  2770.90000,  1600.00000
    305.84,  2805.50000,  1580.70000
    306.32,  2838.90000,  1568.80000
    306.81,  2822.70000,  1554.80000
    307.29,  2796.70000,  1546.40000
    307.77,  2789.90000,  1542.50000
    308.25,  2787.20000,  1541.30000
    308.74,  2799.10000,  1540.30000
    309.22,  2795.20000,  1528.90000
    309.70,  2781.80000,  1517.60000
    310.18,  2774.30000,  1503.10000
    310.67,  2789.70000,  1489.80000
    311.15,  2808.20000,  1480.80000
    311.63,  2820.10000,  1489.70000
    312.12,  2828.70000,  1480.90000
    312.60,  2794.10000,  1487.60000
    313.08,  2763.10000,  1492.40000
    313.56,  2751.00000,  1480.90000
    314.05,  2742.00000,  1467.30000
    314.53,  2764.30000,  1460.30000
    315.01,  2831.50000,  1447.20000
    315.49,  2831.00000,  1444.30000
    315.98,  2832.60000,  1458.20000
    316.46,  2811.00000,  1455.40000
    316.94,  2767.10000,  1455.70000
    317.42,  2750.30000,  1459.20000
    317.90,  2747.00000,  1466.30000
    318.39,  2726.70000,  1455.40000
    318.87,  2775.30000,  1445.40000
    319.35,  2804.30000,  1428.20000
    319.83,  2819.20000,  1418.30000
    320.32,  2831.00000,  1419.80000
    320.80,  2837.00000,  1430.10000
    321.28,  2792.70000,  1431.30000
    321.76,  2833.20000,  1423.00000
    322.24,  2837.00000,  1413.80000
    322.73,  2853.30000,  1407.30000
    323.21,  2849.50000,  1410.50000
    323.69,  2848.00000,  1414.70000
    324.17,  2784.60000,  1418.80000
    324.65,  2756.60000,  1416.60000
    325.14,  2764.40000,  1407.80000
    325.62,  2779.50000,  1405.10000
    326.10,  2834.10000,  1395.90000
    326.58,  2854.50000,  1394.60000
    327.06,  2819.80000,  1397.10000
    327.55,  2831.40000,  1403.60000
    328.03,  2856.40000,  1406.50000
    328.51,  2857.80000,  1406.80000
    328.99,  2879.70000,  1399.60000
    329.47,  2864.10000,  1389.60000
    329.95,  2790.00000,  1404.00000
    330.44,  2796.20000,  1412.80000
    330.92,  2766.30000,  1419.30000
    331.40,  2750.60000,  1413.10000
    331.88,  2744.90000,  1411.20000
    332.36,  2756.10000,  1404.70000
    332.84,  2774.70000,  1416.40000
    333.33,  2824.00000,  1411.80000
    333.81,  2832.60000,  1403.20000
    334.29,  2845.30000,  1389.20000
    334.77,  2845.00000,  1379.80000
    335.25,  2831.80000,  1379.10000
    335.73,  2841.20000,  1370.90000
    336.21,  2837.40000,  1364.30000
    336.69,  2821.40000,  1366.00000
    337.18,  2805.60000,  1379.10000
    337.66,  2785.80000,  1382.40000
    338.14,  2759.20000,  1391.60000
    338.62,  2752.30000,  1372.20000
    339.10,  2774.80000,  1359.00000
    339.58,  2817.10000,  1362.80000
    340.06,  2835.30000,  1365.60000
    340.54,  2847.30000,  1362.10000
    341.03,  2830.20000,  1367.60000
    341.51,  2804.50000,  1357.60000
    341.99,  2799.60000,  1356.10000
    342.47,  2809.70000,  1355.60000
    342.95,  2804.10000,  1350.40000
    343.43,  2799.80000,  1356.80000
    343.91,  2798.60000,  1369.10000
    344.39,  2778.00000,  1373.40000
    344.87,  2762.60000,  1365.80000
    345.35,  2770.80000,  1363.90000
    345.84,  2778.90000,  1367.60000
    346.32,  2827.90000,  1367.70000
    346.80,  2851.90000,  1366.30000
    347.28,  2852.00000,  1356.60000
    347.76,  2831.60000,  1337.40000
    348.24,  2817.80000,  1346.80000
    348.72,  2841.80000,  1354.40000
    349.20,  2865.30000,  1359.90000
    349.68,  2843.30000,  1368.70000
    350.16,  2808.20000,  1371.50000
    350.64,  2760.50000,  1375.50000
    351.12,  2749.90000,  1372.30000
    351.60,  2812.70000,  1361.90000
    352.08,  2858.90000,  1356.10000
    352.56,  2880.50000,  1352.30000
    353.04,  2873.80000,  1352.70000
    353.53,  2850.70000,  1361.30000
    354.01,  2835.00000,  1356.60000
    354.49,  2845.20000,  1357.50000
    354.97,  2841.80000,  1352.50000
    355.45,  2836.50000,  1353.00000
    355.93,  2804.20000,  1359.30000
    356.41,  2819.60000,  1356.70000
    356.89,  2804.10000,  1356.70000
    357.37,  2820.50000,  1352.40000
    357.85,  2800.80000,  1344.30000
    358.33,  2796.20000,  1343.00000
    358.81,  2764.50000,  1357.30000
    359.29,  2776.80000,  1352.70000
    359.77,  2794.20000,  1351.20000
    360.25,  2826.00000,  1347.80000
    360.73,  2818.80000,  1357.80000
    361.21,  2808.70000,  1364.80000
    361.69,  2814.30000,  1377.10000
    362.17,  2810.80000,  1379.90000
    362.65,  2828.50000,  1372.20000
    363.13,  2835.60000,  1359.00000
    363.61,  2837.70000,  1360.50000
    364.09,  2801.00000,  1358.80000
    364.57,  2806.40000,  1349.90000
    365.05,  2803.20000,  1353.00000
    365.53,  2787.30000,  1359.20000
    366.01,  2807.70000,  1356.50000
    366.49,  2850.40000,  1358.50000
    366.97,  2813.10000,  1360.00000
    367.45,  2826.80000,  1358.10000
    367.93,  2848.30000,  1364.40000
