2D Measure spectrum data V5.74

<< MEASURE 1 >>
Data count = 2048
Exposure time = 30000 msec
Average = 10
Inspected time = 2020/10/25 18:21

Wave-dcm-1,Dark spec.  ,Spectrum
    108.17,  2183.10000,   622.60000
    108.66,  2188.80000,   620.50000
    109.15,  2195.20000,   620.10000
    109.65,  2222.10000,   612.60000
    110.14,  2231.50000,   608.90000
    110.63,  2235.20000,   610.10000
    111.13,  2250.60000,   599.90000
    111.62,  2236.90000,   600.90000
    112.11,  2250.10000,   597.70000
    112.60,  2275.80000,   589.10000
    113.10,  2260.40000,   590.00000
    113.59,  2281.20000,   577.70000
    114.08,  2298.80000,   570.30000
    114.58,  2281.30000,   579.30000
    115.07,  2325.90000,   584.00000
    115.56,  2339.80000,   590.20000
    116.06,  2333.50000,   586.90000
    116.55,  2340.90000,   580.00000
    117.04,  2333.10000,   574.50000
    117.53,  2306.50000,   577.70000
    118.03,  2340.10000,   581.60000
    118.52,  2347.20000,   589.50000
    119.01,  2344.10000,   589.70000
    119.51,  2432.70000,   605.60000
    120.00,  2527.90000,   608.40000
    120.49,  2559.10000,   623.50000
    120.98,  2550.40000,   641.60000
    121.48,  2464.80000,   652.70000
    121.97,  2354.40000,   665.80000
    122.46,  2344.00000,   682.40000
    122.95,  2378.20000,   691.50000
    123.45,  2418.70000,   707.20000
    123.94,  2428.20000,   726.90000
    124.43,  2450.80000,   736.30000
    124.92,  2474.00000,   757.80000
    125.42,  2465.30000,   777.30000
    125.91,  2481.60000,   794.00000
    126.40,  2475.30000,   811.90000
    126.89,  2454.50000,   826.40000
    127.39,  2451.70000,   826.20000
    127.88,  2445.60000,   840.60000
    128.37,  2437.30000,   854.30000
    128.86,  2458.70000,   872.10000
    129.35,  2447.40000,   897.30000
    129.85,  2454.00000,   916.00000
    130.34,  2455.10000,   914.70000
    130.83,  2457.30000,   931.00000
    131.32,  2461.90000,   944.40000
    131.81,  2468.30000,   961.20000
    132.31,  2466.40000,   972.10000
    132.80,  2465.40000,   977.70000
    133.29,  2455.80000,   970.40000
    133.78,  2463.60000,   977.40000
    134.27,  2475.00000,   987.40000
    134.77,  2483.90000,   997.40000
    135.26,  2506.60000,  1012.10000
    135.75,  2498.50000,  1033.40000
    136.24,  2515.30000,  1046.60000
    136.73,  2501.30000,  1058.30000
    137.23,  2517.10000,  1060.20000
    137.72,  2512.20000,  1051.10000
    138.21,  2508.00000,  1061.50000
    138.70,  2492.70000,  1072.30000
    139.19,  2524.60000,  1086.00000
    139.68,  2514.70000,  1085.40000
    140.18,  2524.00000,  1085.00000
    140.67,  2530.40000,  1083.70000
    141.16,  2533.40000,  1089.70000
    141.65,  2515.70000,  1115.10000
    142.14,  2514.10000,  1142.10000
    142.63,  2537.30000,  1151.40000
    143.13,  2540.10000,  1166.20000
    143.62,  2576.00000,  1167.50000
    144.11,  2584.90000,  1164.00000
    144.60,  2543.40000,  1176.80000
    145.09,  2527.40000,  1182.70000
    145.58,  2582.70000,  1195.50000
    146.07,  2598.70000,  1201.20000
    146.56,  2608.90000,  1205.80000
    147.06,  2596.10000,  1223.80000
    147.55,  2561.30000,  1229.30000
    148.04,  2520.90000,  1236.90000
    148.53,  2558.70000,  1255.90000
    149.02,  2540.50000,  1263.10000
    149.51,  2613.70000,  1278.70000
    150.00,  2659.10000,  1310.30000
    150.49,  2672.50000,  1338.20000
    150.99,  2669.10000,  1372.50000
    151.48,  2650.00000,  1400.70000
    151.97,  2571.00000,  1425.10000
    152.46,  2585.30000,  1435.80000
    152.95,  2567.20000,  1445.80000
    153.44,  2561.00000,  1454.60000
    153.93,  2581.80000,  1460.80000
    154.42,  2603.90000,  1462.90000
    154.91,  2584.40000,  1468.60000
    155.40,  2574.30000,  1460.50000
    155.89,  2553.80000,  1463.90000
    156.39,  2566.70000,  1472.80000
    156.88,  2544.20000,  1481.50000
    157.37,  2553.70000,  1503.90000
    157.86,  2562.20000,  1517.20000
    158.35,  2570.50000,  1529.00000
    158.84,  2583.50000,  1551.70000
    159.33,  2630.90000,  1580.50000
    159.82,  2638.10000,  1598.00000
    160.31,  2647.50000,  1617.10000
    160.80,  2682.50000,  1621.20000
    161.29,  2633.60000,  1623.30000
    161.78,  2600.50000,  1627.40000
    162.27,  2573.00000,  1638.40000
    162.76,  2572.30000,  1645.10000
    163.25,  2588.30000,  1652.40000
    163.74,  2630.50000,  1661.30000
    164.23,  2631.20000,  1679.10000
    164.72,  2651.80000,  1699.40000
    165.21,  2619.10000,  1719.90000
    165.70,  2599.00000,  1735.80000
    166.20,  2632.70000,  1756.90000
    166.69,  2655.10000,  1772.60000
    167.18,  2666.50000,  1786.80000
    167.67,  2668.30000,  1788.10000
    168.16,  2641.40000,  1763.30000
    168.65,  2594.40000,  1743.00000
    169.14,  2620.30000,  1735.80000
    169.63,  2616.00000,  1731.10000
    170.12,  2606.70000,  1724.70000
    170.61,  2596.50000,  1722.40000
    171.10,  2653.20000,  1700.60000
    171.59,  2646.80000,  1704.90000
    172.08,  2661.00000,  1701.80000
    172.57,  2660.90000,  1703.40000
    173.06,  2660.00000,  1702.90000
    173.55,  2647.00000,  1701.30000
    174.04,  2634.60000,  1701.30000
    174.53,  2622.50000,  1713.30000
    175.02,  2622.80000,  1721.90000
    175.50,  2653.60000,  1726.40000
    175.99,  2688.20000,  1719.00000
    176.48,  2717.50000,  1700.00000
    176.97,  2690.30000,  1679.10000
    177.46,  2687.80000,  1665.40000
    177.95,  2658.40000,  1657.90000
    178.44,  2643.20000,  1653.10000
    178.93,  2622.90000,  1655.60000
    179.42,  2636.90000,  1664.10000
    179.91,  2647.40000,  1677.50000
    180.40,  2662.30000,  1694.10000
    180.89,  2665.40000,  1712.50000
    181.38,  2656.10000,  1724.20000
    181.87,  2648.60000,  1730.40000
    182.36,  2641.50000,  1736.40000
    182.85,  2611.40000,  1747.80000
    183.34,  2629.70000,  1746.40000
    183.83,  2635.10000,  1746.30000
    184.32,  2634.60000,  1730.00000
    184.81,  2677.60000,  1709.60000
    185.29,  2673.80000,  1699.60000
    185.78,  2646.00000,  1686.30000
    186.27,  2656.40000,  1672.50000
    186.76,  2648.30000,  1674.00000
    187.25,  2622.40000,  1672.90000
    187.74,  2690.50000,  1682.70000
    188.23,  2723.90000,  1685.20000
    188.72,  2749.20000,  1673.20000
    189.21,  2733.30000,  1669.00000
    189.70,  2697.20000,  1684.60000
    190.19,  2653.50000,  1702.60000
    190.67,  2643.70000,  1711.80000
    191.16,  2648.10000,  1715.70000
    191.65,  2654.30000,  1715.20000
    192.14,  2632.60000,  1724.10000
    192.63,  2651.60000,  1724.70000
    193.12,  2662.00000,  1729.40000
    193.61,  2655.20000,  1708.10000
    194.10,  2671.60000,  1706.70000
    194.59,  2673.80000,  1698.00000
    195.07,  2667.60000,  1705.30000
    195.56,  2683.90000,  1693.60000
    196.05,  2664.70000,  1695.00000
    196.54,  2655.70000,  1689.30000
    197.03,  2671.80000,  1697.30000
    197.52,  2712.70000,  1696.70000
    198.01,  2718.60000,  1699.10000
    198.49,  2721.40000,  1680.30000
    198.98,  2709.20000,  1673.40000
    199.47,  2667.60000,  1664.20000
    199.96,  2654.40000,  1664.10000
    200.45,  2669.40000,  1658.90000
    200.94,  2653.90000,  1647.50000
    201.43,  2661.30000,  1637.60000
    201.91,  2653.90000,  1639.30000
    202.40,  2637.00000,  1642.80000
    202.89,  2633.40000,  1648.00000
    203.38,  2646.60000,  1650.70000
    203.87,  2654.20000,  1643.50000
    204.36,  2653.60000,  1638.10000
    204.84,  2660.00000,  1635.30000
    205.33,  2677.50000,  1635.30000
    205.82,  2686.50000,  1632.00000
    206.31,  2679.60000,  1634.30000
    206.80,  2678.40000,  1638.10000
    207.28,  2686.60000,  1639.70000
    207.77,  2700.00000,  1646.30000
    208.26,  2711.00000,  1657.70000
    208.75,  2708.70000,  1651.40000
    209.24,  2688.00000,  1642.60000
    209.72,  2697.00000,  1646.70000
    210.21,  2708.30000,  1653.00000
    210.70,  2689.20000,  1662.80000
    211.19,  2706.10000,  1679.40000
    211.68,  2717.70000,  1684.90000
    212.16,  2722.30000,  1685.50000
    212.65,  2727.10000,  1693.00000
    213.14,  2703.10000,  1710.00000
    213.63,  2683.50000,  1714.70000
    214.12,  2667.50000,  1721.50000
    214.60,  2692.80000,  1723.60000
    215.09,  2714.50000,  1719.80000
    215.58,  2714.50000,  1726.60000
    216.07,  2704.60000,  1740.00000
    216.55,  2699.90000,  1751.80000
    217.04,  2630.20000,  1767.60000
    217.53,  2630.10000,  1777.70000
    218.02,  2631.50000,  1794.80000
    218.50,  2645.30000,  1812.70000
    218.99,  2662.90000,  1838.80000
    219.48,  2690.40000,  1852.20000
    219.97,  2658.40000,  1864.30000
    220.45,  2666.30000,  1880.00000
    220.94,  2665.00000,  1901.10000
    221.43,  2680.90000,  1910.80000
    221.92,  2695.50000,  1933.40000
    222.40,  2695.50000,  1945.40000
    222.89,  2688.20000,  1950.60000
    223.38,  2713.10000,  1951.90000
    223.86,  2731.30000,  1957.40000
    224.35,  2750.00000,  1961.20000
    224.84,  2746.10000,  1970.30000
    225.33,  2730.30000,  1979.50000
    225.81,  2701.40000,  1976.70000
    226.30,  2690.80000,  1961.50000
    226.79,  2685.00000,  1958.60000
    227.27,  2671.90000,  1954.20000
    227.76,  2670.00000,  1941.80000
    228.25,  2702.10000,  1923.60000
    228.74,  2715.00000,  1903.80000
    229.22,  2735.40000,  1878.60000
    229.71,  2729.10000,  1850.80000
    230.20,  2712.50000,  1820.10000
    230.68,  2712.90000,  1790.10000
    231.17,  2701.30000,  1761.70000
    231.66,  2675.50000,  1737.50000
    232.14,  2670.40000,  1717.80000
    232.63,  2654.40000,  1698.10000
    233.12,  2674.30000,  1686.50000
    233.60,  2702.50000,  1667.40000
    234.09,  2677.30000,  1648.80000
    234.58,  2666.80000,  1632.60000
    235.06,  2668.60000,  1620.20000
    235.55,  2660.40000,  1610.70000
    236.04,  2659.30000,  1594.60000
    236.52,  2675.20000,  1577.50000
    237.01,  2654.00000,  1561.90000
    237.50,  2691.70000,  1545.60000
    237.98,  2690.70000,  1533.60000
    238.47,  2748.40000,  1519.10000
    238.96,  2764.60000,  1499.30000
    239.44,  2753.20000,  1501.60000
    239.93,  2740.40000,  1508.80000
    240.41,  2699.20000,  1503.80000
    240.90,  2636.90000,  1501.80000
    241.39,  2661.30000,  1497.00000
    241.87,  2700.50000,  1488.60000
    242.36,  2709.30000,  1493.10000
    242.85,  2748.40000,  1495.40000
    243.33,  2743.20000,  1483.10000
    243.82,  2720.60000,  1478.60000
    244.30,  2698.40000,  1473.10000
    244.79,  2699.00000,  1472.10000
    245.28,  2681.30000,  1472.60000
    245.76,  2686.50000,  1460.90000
    246.25,  2678.10000,  1445.90000
    246.74,  2694.90000,  1450.70000
    247.22,  2720.70000,  1453.70000
    247.71,  2708.30000,  1462.70000
    248.19,  2694.40000,  1467.20000
    248.68,  2695.40000,  1454.80000
    249.16,  2659.70000,  1446.50000
    249.65,  2687.20000,  1457.60000
    250.14,  2706.00000,  1456.50000
    250.62,  2686.10000,  1460.00000
    251.11,  2665.90000,  1453.60000
    251.59,  2657.70000,  1435.60000
    252.08,  2642.40000,  1437.50000
    252.57,  2653.90000,  1448.60000
    253.05,  2660.90000,  1444.90000
    253.54,  2700.10000,  1442.30000
    254.02,  2720.00000,  1435.60000
    254.51,  2732.40000,  1424.00000
    254.99,  2724.50000,  1428.90000
    255.48,  2695.40000,  1432.50000
    255.96,  2673.20000,  1427.00000
    256.45,  2703.20000,  1417.20000
    256.94,  2706.40000,  1414.90000
    257.42,  2698.30000,  1418.40000
    257.91,  2693.80000,  1430.30000
    258.39,  2687.80000,  1437.30000
    258.88,  2673.10000,  1443.50000
    259.36,  2695.10000,  1443.20000
    259.85,  2698.00000,  1443.10000
    260.33,  2706.40000,  1452.30000
    260.82,  2725.60000,  1449.60000
    261.30,  2733.80000,  1447.40000
    261.79,  2712.80000,  1440.30000
    262.27,  2702.30000,  1427.10000
    262.76,  2692.70000,  1424.30000
    263.24,  2690.50000,  1434.00000
    263.73,  2713.40000,  1432.70000
    264.22,  2700.30000,  1449.90000
    264.70,  2761.40000,  1458.90000
    265.19,  2788.40000,  1458.50000
    265.67,  2785.20000,  1468.40000
    266.16,  2756.90000,  1470.70000
    266.64,  2729.90000,  1480.60000
    267.13,  2662.90000,  1488.10000
    267.61,  2672.10000,  1488.00000
    268.10,  2693.20000,  1480.60000
    268.58,  2693.20000,  1478.90000
    269.06,  2697.00000,  1470.70000
    269.55,  2715.20000,  1490.20000
    270.03,  2727.00000,  1489.90000
    270.52,  2728.20000,  1495.50000
    271.00,  2743.70000,  1491.50000
    271.49,  2738.90000,  1491.60000
    271.97,  2734.90000,  1499.70000
    272.46,  2737.60000,  1514.00000
    272.94,  2734.70000,  1523.00000
    273.43,  2727.90000,  1527.60000
    273.91,  2702.70000,  1535.50000
    274.40,  2687.30000,  1555.70000
    274.88,  2674.90000,  1571.10000
    275.37,  2678.20000,  1574.70000
    275.85,  2684.90000,  1576.10000
    276.33,  2690.60000,  1564.80000
    276.82,  2698.40000,  1573.30000
    277.30,  2703.60000,  1591.70000
    277.79,  2703.20000,  1593.80000
    278.27,  2709.50000,  1598.20000
    278.76,  2722.90000,  1612.10000
    279.24,  2727.90000,  1617.50000
    279.73,  2724.00000,  1623.60000
    280.21,  2716.00000,  1630.30000
    280.69,  2696.90000,  1633.80000
    281.18,  2698.80000,  1635.20000
    281.66,  2715.00000,  1648.10000
    282.15,  2756.40000,  1643.80000
    282.63,  2749.90000,  1645.70000
    283.11,  2736.30000,  1649.30000
    283.60,  2727.70000,  1659.40000
    284.08,  2734.80000,  1669.80000
    284.57,  2706.80000,  1672.20000
    285.05,  2708.80000,  1670.50000
    285.53,  2688.90000,  1661.20000
    286.02,  2668.80000,  1650.40000
    286.50,  2694.30000,  1645.30000
    286.99,  2711.10000,  1653.60000
    287.47,  2700.60000,  1646.80000
    287.95,  2689.80000,  1650.10000
    288.44,  2679.40000,  1642.30000
    288.92,  2678.30000,  1633.80000
    289.41,  2698.70000,  1623.20000
    289.89,  2721.20000,  1621.20000
    290.37,  2731.30000,  1605.80000
    290.86,  2753.80000,  1601.40000
    291.34,  2721.80000,  1600.80000
    291.82,  2710.40000,  1596.50000
    292.31,  2690.90000,  1590.20000
    292.79,  2703.80000,  1578.00000
    293.28,  2700.60000,  1568.40000
    293.76,  2712.60000,  1558.70000
    294.24,  2705.00000,  1553.20000
    294.73,  2720.30000,  1550.90000
    295.21,  2717.10000,  1553.70000
    295.69,  2727.40000,  1548.60000
    296.18,  2706.20000,  1535.70000
    296.66,  2674.50000,  1510.60000
    297.14,  2672.90000,  1496.30000
    297.63,  2681.70000,  1490.20000
    298.11,  2694.40000,  1491.10000
    298.59,  2729.10000,  1492.60000
    299.08,  2739.10000,  1478.20000
    299.56,  2738.60000,  1464.00000
    300.04,  2756.30000,  1455.10000
    300.53,  2756.90000,  1445.60000
    301.01,  2752.50000,  1436.30000
    301.49,  2747.90000,  1424.50000
    301.98,  2721.00000,  1397.50000
    302.46,  2694.00000,  1385.20000
    302.94,  2689.80000,  1381.50000
    303.42,  2691.50000,  1377.70000
    303.91,  2675.00000,  1374.40000
    304.39,  2658.50000,  1368.50000
    304.87,  2663.20000,  1353.20000
    305.36,  2681.90000,  1350.20000
    305.84,  2717.30000,  1348.70000
    306.32,  2761.80000,  1332.60000
    306.81,  2748.50000,  1317.30000
    307.29,  2721.10000,  1304.30000
    307.77,  2708.10000,  1299.00000
    308.25,  2703.70000,  1303.60000
    308.74,  2719.10000,  1299.90000
    309.22,  2712.90000,  1293.30000
    309.70,  2693.70000,  1292.80000
    310.18,  2682.10000,  1288.90000
    310.67,  2694.40000,  1283.90000
    311.15,  2712.80000,  1279.90000
    311.63,  2737.40000,  1270.30000
    312.12,  2741.10000,  1270.70000
    312.60,  2713.10000,  1268.30000
    313.08,  2686.20000,  1270.50000
    313.56,  2667.80000,  1269.00000
    314.05,  2658.40000,  1265.80000
    314.53,  2676.40000,  1259.60000
    315.01,  2733.60000,  1254.40000
    315.49,  2740.40000,  1240.20000
    315.98,  2745.20000,  1236.40000
    316.46,  2720.80000,  1230.70000
    316.94,  2675.00000,  1231.90000
    317.42,  2658.10000,  1231.10000
    317.90,  2661.30000,  1238.80000
    318.39,  2648.10000,  1238.00000
    318.87,  2693.50000,  1241.20000
    319.35,  2717.60000,  1236.60000
    319.83,  2723.90000,  1231.60000
    320.32,  2743.20000,  1219.90000
    320.80,  2754.20000,  1211.30000
    321.28,  2715.80000,  1203.80000
    321.76,  2746.50000,  1207.20000
    322.24,  2744.50000,  1204.20000
    322.73,  2752.40000,  1210.20000
    323.21,  2760.20000,  1206.30000
    323.69,  2769.30000,  1195.80000
    324.17,  2725.40000,  1185.90000
    324.65,  2698.10000,  1192.80000
    325.14,  2704.10000,  1193.70000
    325.62,  2714.00000,  1207.80000
    326.10,  2755.60000,  1214.60000
    326.58,  2771.30000,  1213.70000
    327.06,  2730.80000,  1214.30000
    327.55,  2741.60000,  1216.20000
    328.03,  2768.20000,  1210.20000
    328.51,  2772.90000,  1206.20000
    328.99,  2782.40000,  1203.90000
    329.47,  2769.30000,  1200.50000
    329.95,  2698.40000,  1206.80000
    330.44,  2710.60000,  1206.10000
    330.92,  2684.40000,  1200.10000
    331.40,  2663.20000,  1202.00000
    331.88,  2651.90000,  1197.80000
    332.36,  2667.20000,  1188.40000
    332.84,  2696.30000,  1187.70000
    333.33,  2743.60000,  1186.30000
    333.81,  2746.40000,  1190.80000
    334.29,  2750.40000,  1193.00000
    334.77,  2746.80000,  1182.80000
    335.25,  2732.30000,  1175.30000
    335.73,  2742.40000,  1171.60000
    336.21,  2740.10000,  1166.20000
    336.69,  2730.20000,  1160.20000
    337.18,  2723.10000,  1155.90000
    337.66,  2699.90000,  1154.40000
    338.14,  2668.80000,  1166.20000
    338.62,  2659.70000,  1161.30000
    339.10,  2691.70000,  1155.90000
    339.58,  2746.40000,  1140.90000
    340.06,  2762.70000,  1136.30000
    340.54,  2765.60000,  1137.20000
    341.03,  2743.20000,  1146.60000
    341.51,  2710.50000,  1144.50000
    341.99,  2708.50000,  1153.40000
    342.47,  2721.60000,  1150.90000
    342.95,  2711.30000,  1155.50000
    343.43,  2711.00000,  1156.20000
    343.91,  2708.60000,  1150.30000
    344.39,  2692.70000,  1133.50000
    344.87,  2671.40000,  1135.00000
    345.35,  2685.60000,  1127.80000
    345.84,  2696.20000,  1135.60000
    346.32,  2747.20000,  1138.10000
    346.80,  2764.50000,  1146.30000
    347.28,  2764.10000,  1141.00000
    347.76,  2725.00000,  1147.40000
    348.24,  2723.00000,  1132.60000
    348.72,  2745.80000,  1122.10000
    349.20,  2773.30000,  1114.40000
    349.68,  2753.80000,  1132.50000
    350.16,  2722.80000,  1149.50000
    350.64,  2674.60000,  1160.90000
    351.12,  2667.80000,  1154.90000
    351.60,  2724.70000,  1144.80000
    352.08,  2768.10000,  1134.50000
    352.56,  2789.30000,  1135.40000
    353.04,  2787.00000,  1132.00000
    353.53,  2755.20000,  1135.50000
    354.01,  2730.10000,  1140.00000
    354.49,  2739.00000,  1146.80000
    354.97,  2740.40000,  1146.60000
    355.45,  2741.50000,  1148.20000
    355.93,  2723.20000,  1143.70000
    356.41,  2728.00000,  1154.40000
    356.89,  2717.90000,  1147.80000
    357.37,  2728.00000,  1145.30000
    357.85,  2709.10000,  1136.70000
    358.33,  2698.60000,  1132.40000
    358.81,  2677.40000,  1135.00000
    359.29,  2682.10000,  1153.40000
    359.77,  2704.70000,  1152.90000
    360.25,  2732.30000,  1149.90000
    360.73,  2729.30000,  1144.80000
    361.21,  2721.30000,  1141.30000
    361.69,  2728.40000,  1142.20000
    362.17,  2725.50000,  1148.00000
    362.65,  2737.80000,  1144.50000
    363.13,  2744.80000,  1137.00000
    363.61,  2749.00000,  1143.30000
    364.09,  2720.00000,  1145.40000
    364.57,  2711.70000,  1159.90000
    365.05,  2711.70000,  1159.80000
    365.53,  2692.40000,  1150.30000
    366.01,  2710.70000,  1143.00000
    366.49,  2751.10000,  1143.80000
    366.97,  2717.30000,  1137.70000
    367.45,  2734.40000,  1147.90000
    367.93,  2764.90000,  1146.10000
