*RAS_DATA_START
*RAS_HEADER_START
*DISP_FMT_X "%.2f"
*DISP_FMT_Y "%.0f"
*DISP_FULLSCALE "3534.0000000000"
*DISP_LINE_COLOR "255.0000000000"
*DISP_LINE_STYLE "0.0000000000"
*DISP_LINE_WIDTH "0.2500000000"
*DISP_NOTE "測定データ-1"
*DISP_OFFSET_Y "0.0000000000"
*DISP_PEAKSEARCH_UNIT_Y "cps"
*DISP_RANGE_BOTTOM "0.0000000000"
*DISP_RANGE_LEFT "20.0000000000"
*DISP_RANGE_LOGCUTOFF "0.0100000000"
*DISP_RANGE_RIGHT "80.0000000000"
*DISP_RANGE_TOP "3534.0000000000"
*DISP_SCALE_MODE_Y "0.0000000000"
*DISP_TAB_NAME "2θ/θ"
*DISP_TITLE_Y "強度"
*DISP_UNIT_Y "cps"
*DISP_WINDOW_NAME "MSG_MACROENGINE"
*FILE_COMMENT " "
*FILE_MD5 ""
*FILE_MEMO " "
*FILE_OPERATOR "Administrator"
*FILE_SAMPLE " "
*FILE_TYPE "RAS_RAW"
*FILE_USERGROUP "システムマネージャ"
*FILE_VERSION "1.0000000000"
*HW_ATTACHMENT_ID "ATT0025"
*HW_ATTACHMENT_NAME "標準|Standard"
*HW_COUNTER_ID-0 "CUT0025"
*HW_COUNTER_ID-1 "CUT0020"
*HW_COUNTER_ID-2 "CUT0020"
*HW_COUNTER_ID-3 "CSL0021"
*HW_COUNTER_ID-4 "CMC0021"
*HW_COUNTER_NAME-0 "D/teX Ultra|D/teX Ultra"
*HW_COUNTER_NAME-1 "None|None"
*HW_COUNTER_NAME-2 "None|None"
*HW_COUNTER_NAME-3 "BBM|BBM"
*HW_COUNTER_NAME-4 "検出器モノクロメータ|Detector monochromator"
*HW_COUNTER_SELECT_NAME "D/teX Ultra|D/teX Ultra"
*HW_GONIOMETER_ID "GON0023"
*HW_GONIOMETER_NAME "SmartLab|SmartLab"
*HW_GONIOMETER_RADIUS-0 "90.0"
*HW_GONIOMETER_RADIUS-1 "114.0"
*HW_GONIOMETER_RADIUS-2 "190.0"
*HW_GONIOMETER_RADIUS-3 "300.0"
*HW_GONIOMETER_RADIUS-4 "187.0"
*HW_GONIOMETER_RADIUS-5 "300.0"
*HW_GONIOMETER_RADIUS-6 "113.0"
*HW_GONIOMETER_RADIUS-7 "331.0"
*HW_I_OPT_ID-0 "CBO0021"
*HW_I_OPT_ID-1 "ICR0023"
*HW_I_OPT_ID-2 "ISL0021"
*HW_I_OPT_ID-3 "ISO0021"
*HW_I_OPT_ID-4 "IAD0021"
*HW_I_OPT_ID-5 "IPR0001"
*HW_I_OPT_NAME-0 "CBOユニット|CBO unit"
*HW_I_OPT_NAME-1 "標準入射光学ユニット|Standard incident optical unit"
*HW_I_OPT_NAME-2 "標準入射スリットボックス|Standard incident slit box"
*HW_I_OPT_NAME-3 "入射平行スリット|Incident parallel slit"
*HW_I_OPT_NAME-4 "長手制限スリット|Length limiting slit"
*HW_I_OPT_NAME-5 "None|None"
*HW_R_ATTENUATER_AUTOMODE "0"
*HW_R_OPT_ID-0 "RSS0021"
*HW_R_OPT_ID-1 "RCR0023"
*HW_R_OPT_ID-2 "RSO0021"
*HW_R_OPT_ID-3 "RRS0021"
*HW_R_OPT_ID-4 "ATN0021"
*HW_R_OPT_ID-5 "RFL0021"
*HW_R_OPT_ID-6 "RAD0021"
*HW_R_OPT_NAME-0 "標準受光スリットボックス1|Standard receiving slit box # 1"
*HW_R_OPT_NAME-1 "標準受光光学ユニット1|Standard receiving unit # 1"
*HW_R_OPT_NAME-2 "標準受光光学ユニット2|Standard receiving optical unit # 2"
*HW_R_OPT_NAME-3 "標準受光スリットボックス2|Standard receiving slit box # 2"
*HW_R_OPT_NAME-4 "標準アッテネータ|Standard Attenuator"
*HW_R_OPT_NAME-5 "Cu Kβ|Cu K-beta"
*HW_R_OPT_NAME-6 "調整用受光スリット|Alignment receiving slit"
*HW_SAMPLE_HOLDER_ID "SMP0023"
*HW_SAMPLE_HOLDER_NAME "標準Zステージ|Standard Z stage"
*HW_XG_CURRENT_MAX "50"
*HW_XG_CURRENT_MIN "2"
*HW_XG_CURRENT_RESOLUTION "2"
*HW_XG_CURRENT_UNIT "mA"
*HW_XG_FOCUS "1mm x 10mm"
*HW_XG_FOCUS_TYPE "Normal"
*HW_XG_ID ""
*HW_XG_NAME "3kW 封入管(ID:1200)|3kW Sealed tube(ID:1200)"
*HW_XG_TARGET_ATOMIC_NUMBER "29.0000000000"
*HW_XG_TARGET_NAME "Cu"
*HW_XG_TYPE "Hermetic"
*HW_XG_VOLTAGE_MAX "60"
*HW_XG_VOLTAGE_MIN "20"
*HW_XG_VOLTAGE_RESOLUTION "2"
*HW_XG_VOLTAGE_UNIT "kV"
*HW_XG_WATT_MAX "2"
*HW_XG_WATT_UNIT "kW"
*HW_XG_WAVE_LENGTH_ALPHA1 "1.540593"
*HW_XG_WAVE_LENGTH_ALPHA2 "1.544414"
*HW_XG_WAVE_LENGTH_BETA "1.392250"
*MEAS_COND_AXIS_NAME-0 "2θ/θ"
*MEAS_COND_AXIS_NAME-1 "2θ"
*MEAS_COND_AXIS_NAME-2 "ω"
*MEAS_COND_AXIS_NAME-3 "Z"
*MEAS_COND_AXIS_NAME-4 "2θ/ω"
*MEAS_COND_AXIS_NAME-5 "θs"
*MEAS_COND_AXIS_NAME-6 "θd"
*MEAS_COND_AXIS_NAME-7 "Ts"
*MEAS_COND_AXIS_NAME-8 "CBO選択スリット"
*MEAS_COND_AXIS_NAME-9 "M"
*MEAS_COND_AXIS_NAME-10 "入射平行スリット"
*MEAS_COND_AXIS_NAME-11 "入射スリット"
*MEAS_COND_AXIS_NAME-12 ""
*MEAS_COND_AXIS_NAME-13 "Zs"
*MEAS_COND_AXIS_NAME-14 "入射光学素子"
*MEAS_COND_AXIS_NAME-15 "長手制限スリット"
*MEAS_COND_AXIS_NAME-16 "センタースリット"
*MEAS_COND_AXIS_NAME-17 "フィルター"
*MEAS_COND_AXIS_NAME-18 "受光スリット1"
*MEAS_COND_AXIS_NAME-19 "受光スリット2"
*MEAS_COND_AXIS_NAME-20 "受光光学素子"
*MEAS_COND_AXIS_NAME-21 "受光平行スリット"
*MEAS_COND_AXIS_NAME-22 "調整用受光スリット"
*MEAS_COND_AXIS_NAME-23 ""
*MEAS_COND_AXIS_NAME-24 ""
*MEAS_COND_AXIS_NAME-25 "Zd"
*MEAS_COND_AXIS_NAME-26 "アッテネータ"
*MEAS_COND_AXIS_NAME-27 "検出器モノクロメータ"
*MEAS_COND_AXIS_NAME-28 "モノクロメータスリット"
*MEAS_COND_AXIS_NAME-29 "プライマリビーム"
*MEAS_COND_AXIS_NAME-30 "PHA"
*MEAS_COND_AXIS_NAME_INTERNAL-0 "TwoThetaTheta"
*MEAS_COND_AXIS_NAME_INTERNAL-1 "TwoTheta"
*MEAS_COND_AXIS_NAME_INTERNAL-2 "Omega"
*MEAS_COND_AXIS_NAME_INTERNAL-3 "Z"
*MEAS_COND_AXIS_NAME_INTERNAL-4 "TwoThetaOmega"
*MEAS_COND_AXIS_NAME_INTERNAL-5 "ThetaS"
*MEAS_COND_AXIS_NAME_INTERNAL-6 "ThetaD"
*MEAS_COND_AXIS_NAME_INTERNAL-7 "Ts"
*MEAS_COND_AXIS_NAME_INTERNAL-8 "CBO"
*MEAS_COND_AXIS_NAME_INTERNAL-9 "CBO-M"
*MEAS_COND_AXIS_NAME_INTERNAL-10 "IncidentSollerSlit"
*MEAS_COND_AXIS_NAME_INTERNAL-11 "IncidentSlitBox"
*MEAS_COND_AXIS_NAME_INTERNAL-12 "IncidentSlitBox-_Axis"
*MEAS_COND_AXIS_NAME_INTERNAL-13 "Zs"
*MEAS_COND_AXIS_NAME_INTERNAL-14 "IncidentMonochromator"
*MEAS_COND_AXIS_NAME_INTERNAL-15 "IncidentAxdSlit"
*MEAS_COND_AXIS_NAME_INTERNAL-16 "CenterSlit"
*MEAS_COND_AXIS_NAME_INTERNAL-17 "Filter"
*MEAS_COND_AXIS_NAME_INTERNAL-18 "ReceivingSlitBox1"
*MEAS_COND_AXIS_NAME_INTERNAL-19 "ReceivingSlitBox2"
*MEAS_COND_AXIS_NAME_INTERNAL-20 "ReceivingOptics"
*MEAS_COND_AXIS_NAME_INTERNAL-21 "ReceivingSollerSlit"
*MEAS_COND_AXIS_NAME_INTERNAL-22 "ReceivingAxdSlit"
*MEAS_COND_AXIS_NAME_INTERNAL-23 "ReceivingSlitBox1-_Axis"
*MEAS_COND_AXIS_NAME_INTERNAL-24 "ReceivingSlitBox2-_Axis"
*MEAS_COND_AXIS_NAME_INTERNAL-25 "ReceivingSlitBox2-Zd"
*MEAS_COND_AXIS_NAME_INTERNAL-26 "Attenuator"
*MEAS_COND_AXIS_NAME_INTERNAL-27 "CounterMonochromator"
*MEAS_COND_AXIS_NAME_INTERNAL-28 "CounterSlit"
*MEAS_COND_AXIS_NAME_INTERNAL-29 "IncidentPrimary"
*MEAS_COND_AXIS_NAME_INTERNAL-30 "PHA"
*MEAS_COND_AXIS_NAME_MAGICNO-0 "83951616.0000000000"
*MEAS_COND_AXIS_NAME_MAGICNO-1 "268632064.0000000000"
*MEAS_COND_AXIS_NAME_MAGICNO-2 "268500992.0000000000"
*MEAS_COND_AXIS_NAME_MAGICNO-3 "285278208.0000000000"
*MEAS_COND_AXIS_NAME_MAGICNO-4 "83951616.0000000000"
*MEAS_COND_AXIS_NAME_MAGICNO-5 "131072.0000000000"
*MEAS_COND_AXIS_NAME_MAGICNO-6 "131072.0000000000"
*MEAS_COND_AXIS_NAME_MAGICNO-7 "318898176.0000000000"
*MEAS_COND_AXIS_NAME_MAGICNO-8 "20971521.0000000000"
*MEAS_COND_AXIS_NAME_MAGICNO-9 "285343744.0000000000"
*MEAS_COND_AXIS_NAME_MAGICNO-10 "20971521.0000000000"
*MEAS_COND_AXIS_NAME_MAGICNO-11 "22020097.0000000000"
*MEAS_COND_AXIS_NAME_MAGICNO-12 "25165824.0000000000"
*MEAS_COND_AXIS_NAME_MAGICNO-13 "318898176.0000000000"
*MEAS_COND_AXIS_NAME_MAGICNO-14 "1.0000000000"
*MEAS_COND_AXIS_NAME_MAGICNO-15 "20971521.0000000000"
*MEAS_COND_AXIS_NAME_MAGICNO-16 "20971521.0000000000"
*MEAS_COND_AXIS_NAME_MAGICNO-17 "20971521.0000000000"
*MEAS_COND_AXIS_NAME_MAGICNO-18 "23068673.0000000000"
*MEAS_COND_AXIS_NAME_MAGICNO-19 "23068673.0000000000"
*MEAS_COND_AXIS_NAME_MAGICNO-20 "20971521.0000000000"
*MEAS_COND_AXIS_NAME_MAGICNO-21 "20971521.0000000000"
*MEAS_COND_AXIS_NAME_MAGICNO-22 "20971521.0000000000"
*MEAS_COND_AXIS_NAME_MAGICNO-23 "25165824.0000000000"
*MEAS_COND_AXIS_NAME_MAGICNO-24 "25165824.0000000000"
*MEAS_COND_AXIS_NAME_MAGICNO-25 "285343744.0000000000"
*MEAS_COND_AXIS_NAME_MAGICNO-26 "17301505.0000000000"
*MEAS_COND_AXIS_NAME_MAGICNO-27 "20971521.0000000000"
*MEAS_COND_AXIS_NAME_MAGICNO-28 "20971521.0000000000"
*MEAS_COND_AXIS_NAME_MAGICNO-29 "20971521.0000000000"
*MEAS_COND_AXIS_NAME_MAGICNO-30 "0.0000000000"
*MEAS_COND_AXIS_OFFSET-0 "-"
*MEAS_COND_AXIS_OFFSET-1 "-0.1081000000"
*MEAS_COND_AXIS_OFFSET-2 "0.3758000000"
*MEAS_COND_AXIS_OFFSET-3 "-"
*MEAS_COND_AXIS_OFFSET-4 "-"
*MEAS_COND_AXIS_OFFSET-5 "0.3758000000"
*MEAS_COND_AXIS_OFFSET-6 "-0.4839000000"
*MEAS_COND_AXIS_OFFSET-7 "-"
*MEAS_COND_AXIS_OFFSET-8 "-"
*MEAS_COND_AXIS_OFFSET-9 "-"
*MEAS_COND_AXIS_OFFSET-10 "-"
*MEAS_COND_AXIS_OFFSET-11 "-"
*MEAS_COND_AXIS_OFFSET-12 "-"
*MEAS_COND_AXIS_OFFSET-13 "-"
*MEAS_COND_AXIS_OFFSET-14 "-"
*MEAS_COND_AXIS_OFFSET-15 "-"
*MEAS_COND_AXIS_OFFSET-16 "-"
*MEAS_COND_AXIS_OFFSET-17 "-"
*MEAS_COND_AXIS_OFFSET-18 "-"
*MEAS_COND_AXIS_OFFSET-19 "-"
*MEAS_COND_AXIS_OFFSET-20 "-"
*MEAS_COND_AXIS_OFFSET-21 "-"
*MEAS_COND_AXIS_OFFSET-22 "-"
*MEAS_COND_AXIS_OFFSET-23 "-"
*MEAS_COND_AXIS_OFFSET-24 "-"
*MEAS_COND_AXIS_OFFSET-25 "-"
*MEAS_COND_AXIS_OFFSET-26 "-"
*MEAS_COND_AXIS_OFFSET-27 "-"
*MEAS_COND_AXIS_OFFSET-28 "-"
*MEAS_COND_AXIS_OFFSET-29 "-"
*MEAS_COND_AXIS_OFFSET-30 "-"
*MEAS_COND_AXIS_POSITION-0 "0.0000000000"
*MEAS_COND_AXIS_POSITION-1 "0.0000000000"
*MEAS_COND_AXIS_POSITION-2 "0.0000000000"
*MEAS_COND_AXIS_POSITION-3 "-0.5500000000"
*MEAS_COND_AXIS_POSITION-4 "0.0000000000"
*MEAS_COND_AXIS_POSITION-5 "0.0000000000"
*MEAS_COND_AXIS_POSITION-6 "0.0000000000"
*MEAS_COND_AXIS_POSITION-7 "-0.4278800000"
*MEAS_COND_AXIS_POSITION-8 "BB"
*MEAS_COND_AXIS_POSITION-9 "0.0000000000"
*MEAS_COND_AXIS_POSITION-10 "Soller_slit_5.0deg"
*MEAS_COND_AXIS_POSITION-11 "2/3deg"
*MEAS_COND_AXIS_POSITION-12 "2.2088000000"
*MEAS_COND_AXIS_POSITION-13 "-0.4140600000"
*MEAS_COND_AXIS_POSITION-14 "0.0000000000"
*MEAS_COND_AXIS_POSITION-15 "10.0mm"
*MEAS_COND_AXIS_POSITION-16 "None"
*MEAS_COND_AXIS_POSITION-17 "Cu_K-beta"
*MEAS_COND_AXIS_POSITION-18 "13.000mm"
*MEAS_COND_AXIS_POSITION-19 "13.000mm"
*MEAS_COND_AXIS_POSITION-20 "No_unit"
*MEAS_COND_AXIS_POSITION-21 "Soller_slit_5.0deg"
*MEAS_COND_AXIS_POSITION-22 "None"
*MEAS_COND_AXIS_POSITION-23 "13.0000000000"
*MEAS_COND_AXIS_POSITION-24 "13.0000000000"
*MEAS_COND_AXIS_POSITION-25 "0.0109400000"
*MEAS_COND_AXIS_POSITION-26 "Open"
*MEAS_COND_AXIS_POSITION-27 "None"
*MEAS_COND_AXIS_POSITION-28 "None"
*MEAS_COND_AXIS_POSITION-29 "None"
*MEAS_COND_AXIS_POSITION-30 "38.0000000000"
*MEAS_COND_AXIS_UNIT-0 "deg"
*MEAS_COND_AXIS_UNIT-1 "deg"
*MEAS_COND_AXIS_UNIT-2 "deg"
*MEAS_COND_AXIS_UNIT-3 "mm"
*MEAS_COND_AXIS_UNIT-4 "deg"
*MEAS_COND_AXIS_UNIT-5 "deg"
*MEAS_COND_AXIS_UNIT-6 "deg"
*MEAS_COND_AXIS_UNIT-7 "mm"
*MEAS_COND_AXIS_UNIT-8 ""
*MEAS_COND_AXIS_UNIT-9 "pulse"
*MEAS_COND_AXIS_UNIT-10 ""
*MEAS_COND_AXIS_UNIT-11 ""
*MEAS_COND_AXIS_UNIT-12 "mm"
*MEAS_COND_AXIS_UNIT-13 "mm"
*MEAS_COND_AXIS_UNIT-14 ""
*MEAS_COND_AXIS_UNIT-15 ""
*MEAS_COND_AXIS_UNIT-16 ""
*MEAS_COND_AXIS_UNIT-17 ""
*MEAS_COND_AXIS_UNIT-18 ""
*MEAS_COND_AXIS_UNIT-19 ""
*MEAS_COND_AXIS_UNIT-20 ""
*MEAS_COND_AXIS_UNIT-21 ""
*MEAS_COND_AXIS_UNIT-22 ""
*MEAS_COND_AXIS_UNIT-23 "mm"
*MEAS_COND_AXIS_UNIT-24 "mm"
*MEAS_COND_AXIS_UNIT-25 "mm"
*MEAS_COND_AXIS_UNIT-26 ""
*MEAS_COND_AXIS_UNIT-27 ""
*MEAS_COND_AXIS_UNIT-28 ""
*MEAS_COND_AXIS_UNIT-29 ""
*MEAS_COND_AXIS_UNIT-30 "div"
*MEAS_COND_COUNTER_CNTLOSS_CORR "0.0000000000"
*MEAS_COND_COUNTER_PHABASE "38.0000000000"
*MEAS_COND_COUNTER_PHAWINDOW "16.0000000000"
*MEAS_COND_COUNTER_PHA_UNIT "div"
*MEAS_COND_COUNTER_TAUDIFF "30.0000000000"
*MEAS_COND_COUNTER_TAUINT "0.0000000000"
*MEAS_COND_IRRADIATION_MODE "OFF"
*MEAS_COND_IRRADIATION_WIDTH ""
*MEAS_COND_OPT_ATTR "集中法"
*MEAS_COND_OPT_NAME "@集中法"
*MEAS_COND_UNSYMMETRIC_MODE "OFF"
*MEAS_COND_XG_CURRENT "30.0000000000"
*MEAS_COND_XG_VOLTAGE "40.0000000000"
*MEAS_COND_XG_WAVE_TYPE "Ka"
*MEAS_DATA_COUNT "3001.0000000000"
*MEAS_SCAN_AXIS_X "2θ/θ"
*MEAS_SCAN_AXIS_X_INTERNAL "TwoThetaTheta"
*MEAS_SCAN_END_TIME "08/27/20 11:27:10"
*MEAS_SCAN_MODE "CONTINUOUS"
*MEAS_SCAN_MONITOR "0"
*MEAS_SCAN_RESOLUTION_X "0.0002"
*MEAS_SCAN_SPEED "2.0"
*MEAS_SCAN_SPEED_UNIT "deg/min"
*MEAS_SCAN_START "20.0000000000"
*MEAS_SCAN_START_TIME "08/27/20 10:55:31"
*MEAS_SCAN_STEP "0.0200000000"
*MEAS_SCAN_STOP "80.0000000000"
*MEAS_SCAN_UNIT_X "deg"
*MEAS_SCAN_UNIT_Y "counts"
*RAS_HEADER_END
*RAS_INT_START
20.0000 1766.0000 1.0000
20.0200 1729.0000 1.0000
20.0400 1699.0000 1.0000
20.0600 1729.0000 1.0000
20.0800 1767.0000 1.0000
20.1000 1662.0000 1.0000
20.1200 1712.0000 1.0000
20.1400 1705.0000 1.0000
20.1600 1750.0000 1.0000
20.1800 1756.0000 1.0000
20.2000 1688.0000 1.0000
20.2200 1670.0000 1.0000
20.2400 1634.0000 1.0000
20.2600 1713.0000 1.0000
20.2800 1639.0000 1.0000
20.3000 1706.0000 1.0000
20.3200 1725.0000 1.0000
20.3400 1647.0000 1.0000
20.3600 1657.0000 1.0000
20.3800 1700.0000 1.0000
20.4000 1686.0000 1.0000
20.4200 1680.0000 1.0000
20.4400 1678.0000 1.0000
20.4600 1750.0000 1.0000
20.4800 1662.0000 1.0000
20.5000 1583.0000 1.0000
20.5200 1682.0000 1.0000
20.5400 1617.0000 1.0000
20.5600 1736.0000 1.0000
20.5800 1660.0000 1.0000
20.6000 1664.0000 1.0000
20.6200 1675.0000 1.0000
20.6400 1573.0000 1.0000
20.6600 1574.0000 1.0000
20.6800 1639.0000 1.0000
20.7000 1676.0000 1.0000
20.7200 1601.0000 1.0000
20.7400 1622.0000 1.0000
20.7600 1680.0000 1.0000
20.7800 1629.0000 1.0000
20.8000 1641.0000 1.0000
20.8200 1651.0000 1.0000
20.8400 1603.0000 1.0000
20.8600 1590.0000 1.0000
20.8800 1601.0000 1.0000
20.9000 1648.0000 1.0000
20.9200 1599.0000 1.0000
20.9400 1623.0000 1.0000
20.9600 1635.0000 1.0000
20.9800 1558.0000 1.0000
21.0000 1535.0000 1.0000
21.0200 1601.0000 1.0000
21.0400 1589.0000 1.0000
21.0600 1579.0000 1.0000
21.0800 1621.0000 1.0000
21.1000 1561.0000 1.0000
21.1200 1598.0000 1.0000
21.1400 1572.0000 1.0000
21.1600 1586.0000 1.0000
21.1800 1561.0000 1.0000
21.2000 1574.0000 1.0000
21.2200 1531.0000 1.0000
21.2400 1580.0000 1.0000
21.2600 1610.0000 1.0000
21.2800 1564.0000 1.0000
21.3000 1481.0000 1.0000
21.3200 1596.0000 1.0000
21.3400 1534.0000 1.0000
21.3600 1590.0000 1.0000
21.3800 1548.0000 1.0000
21.4000 1492.0000 1.0000
21.4200 1580.0000 1.0000
21.4400 1528.0000 1.0000
21.4600 1540.0000 1.0000
21.4800 1504.0000 1.0000
21.5000 1586.0000 1.0000
21.5200 1516.0000 1.0000
21.5400 1503.0000 1.0000
21.5600 1481.0000 1.0000
21.5800 1515.0000 1.0000
21.6000 1486.0000 1.0000
21.6200 1524.0000 1.0000
21.6400 1512.0000 1.0000
21.6600 1517.0000 1.0000
21.6800 1465.0000 1.0000
21.7000 1452.0000 1.0000
21.7200 1472.0000 1.0000
21.7400 1465.0000 1.0000
21.7600 1497.0000 1.0000
21.7800 1542.0000 1.0000
21.8000 1449.0000 1.0000
21.8200 1460.0000 1.0000
21.8400 1459.0000 1.0000
21.8600 1462.0000 1.0000
21.8800 1459.0000 1.0000
21.9000 1501.0000 1.0000
21.9200 1515.0000 1.0000
21.9400 1536.0000 1.0000
21.9600 1533.0000 1.0000
21.9800 1454.0000 1.0000
22.0000 1459.0000 1.0000
22.0200 1426.0000 1.0000
22.0400 1401.0000 1.0000
22.0600 1445.0000 1.0000
22.0800 1463.0000 1.0000
22.1000 1488.0000 1.0000
22.1200 1501.0000 1.0000
22.1400 1442.0000 1.0000
22.1600 1381.0000 1.0000
22.1800 1432.0000 1.0000
22.2000 1476.0000 1.0000
22.2200 1422.0000 1.0000
22.2400 1426.0000 1.0000
22.2600 1432.0000 1.0000
22.2800 1404.0000 1.0000
22.3000 1384.0000 1.0000
22.3200 1347.0000 1.0000
22.3400 1439.0000 1.0000
22.3600 1481.0000 1.0000
22.3800 1408.0000 1.0000
22.4000 1363.0000 1.0000
22.4200 1424.0000 1.0000
22.4400 1429.0000 1.0000
22.4600 1372.0000 1.0000
22.4800 1396.0000 1.0000
22.5000 1370.0000 1.0000
22.5200 1397.0000 1.0000
22.5400 1420.0000 1.0000
22.5600 1437.0000 1.0000
22.5800 1438.0000 1.0000
22.6000 1385.0000 1.0000
22.6200 1365.0000 1.0000
22.6400 1348.0000 1.0000
22.6600 1413.0000 1.0000
22.6800 1429.0000 1.0000
22.7000 1390.0000 1.0000
22.7200 1359.0000 1.0000
22.7400 1351.0000 1.0000
22.7600 1346.0000 1.0000
22.7800 1399.0000 1.0000
22.8000 1418.0000 1.0000
22.8200 1392.0000 1.0000
22.8400 1400.0000 1.0000
22.8600 1328.0000 1.0000
22.8800 1359.0000 1.0000
22.9000 1386.0000 1.0000
22.9200 1324.0000 1.0000
22.9400 1353.0000 1.0000
22.9600 1362.0000 1.0000
22.9800 1370.0000 1.0000
23.0000 1317.0000 1.0000
23.0200 1314.0000 1.0000
23.0400 1310.0000 1.0000
23.0600 1296.0000 1.0000
23.0800 1293.0000 1.0000
23.1000 1345.0000 1.0000
23.1200 1331.0000 1.0000
23.1400 1287.0000 1.0000
23.1600 1290.0000 1.0000
23.1800 1316.0000 1.0000
23.2000 1268.0000 1.0000
23.2200 1322.0000 1.0000
23.2400 1298.0000 1.0000
23.2600 1300.0000 1.0000
23.2800 1298.0000 1.0000
23.3000 1273.0000 1.0000
23.3200 1339.0000 1.0000
23.3400 1276.0000 1.0000
23.3600 1278.0000 1.0000
23.3800 1316.0000 1.0000
23.4000 1284.0000 1.0000
23.4200 1246.0000 1.0000
23.4400 1298.0000 1.0000
23.4600 1262.0000 1.0000
23.4800 1194.0000 1.0000
23.5000 1288.0000 1.0000
23.5200 1244.0000 1.0000
23.5400 1305.0000 1.0000
23.5600 1307.0000 1.0000
23.5800 1258.0000 1.0000
23.6000 1251.0000 1.0000
23.6200 1249.0000 1.0000
23.6400 1282.0000 1.0000
23.6600 1279.0000 1.0000
23.6800 1225.0000 1.0000
23.7000 1259.0000 1.0000
23.7200 1290.0000 1.0000
23.7400 1259.0000 1.0000
23.7600 1240.0000 1.0000
23.7800 1210.0000 1.0000
23.8000 1245.0000 1.0000
23.8200 1206.0000 1.0000
23.8400 1289.0000 1.0000
23.8600 1263.0000 1.0000
23.8800 1222.0000 1.0000
23.9000 1192.0000 1.0000
23.9200 1198.0000 1.0000
23.9400 1150.0000 1.0000
23.9600 1195.0000 1.0000
23.9800 1234.0000 1.0000
24.0000 1221.0000 1.0000
24.0200 1163.0000 1.0000
24.0400 1218.0000 1.0000
24.0600 1229.0000 1.0000
24.0800 1220.0000 1.0000
24.1000 1248.0000 1.0000
24.1200 1169.0000 1.0000
24.1400 1145.0000 1.0000
24.1600 1222.0000 1.0000
24.1800 1135.0000 1.0000
24.2000 1212.0000 1.0000
24.2200 1237.0000 1.0000
24.2400 1146.0000 1.0000
24.2600 1222.0000 1.0000
24.2800 1232.0000 1.0000
24.3000 1160.0000 1.0000
24.3200 1103.0000 1.0000
24.3400 1242.0000 1.0000
24.3600 1120.0000 1.0000
24.3800 1214.0000 1.0000
24.4000 1153.0000 1.0000
24.4200 1174.0000 1.0000
24.4400 1176.0000 1.0000
24.4600 1184.0000 1.0000
24.4800 1214.0000 1.0000
24.5000 1139.0000 1.0000
24.5200 1153.0000 1.0000
24.5400 1104.0000 1.0000
24.5600 1107.0000 1.0000
24.5800 1185.0000 1.0000
24.6000 1182.0000 1.0000
24.6200 1184.0000 1.0000
24.6400 1150.0000 1.0000
24.6600 1169.0000 1.0000
24.6800 1130.0000 1.0000
24.7000 1152.0000 1.0000
24.7200 1195.0000 1.0000
24.7400 1156.0000 1.0000
24.7600 1080.0000 1.0000
24.7800 1163.0000 1.0000
24.8000 1164.0000 1.0000
24.8200 1156.0000 1.0000
24.8400 1182.0000 1.0000
24.8600 1135.0000 1.0000
24.8800 1101.0000 1.0000
24.9000 1161.0000 1.0000
24.9200 1149.0000 1.0000
24.9400 1130.0000 1.0000
24.9600 1181.0000 1.0000
24.9800 1123.0000 1.0000
25.0000 1117.0000 1.0000
25.0200 1117.0000 1.0000
25.0400 1125.0000 1.0000
25.0600 1117.0000 1.0000
25.0800 1046.0000 1.0000
25.1000 1074.0000 1.0000
25.1200 1080.0000 1.0000
25.1400 1096.0000 1.0000
25.1600 1066.0000 1.0000
25.1800 1096.0000 1.0000
25.2000 1086.0000 1.0000
25.2200 1073.0000 1.0000
25.2400 1092.0000 1.0000
25.2600 1055.0000 1.0000
25.2800 1105.0000 1.0000
25.3000 1068.0000 1.0000
25.3200 1152.0000 1.0000
25.3400 1075.0000 1.0000
25.3600 1096.0000 1.0000
25.3800 1079.0000 1.0000
25.4000 1085.0000 1.0000
25.4200 1099.0000 1.0000
25.4400 1040.0000 1.0000
25.4600 1094.0000 1.0000
25.4800 1034.0000 1.0000
25.5000 1084.0000 1.0000
25.5200 1113.0000 1.0000
25.5400 1065.0000 1.0000
25.5600 1073.0000 1.0000
25.5800 1068.0000 1.0000
25.6000 1069.0000 1.0000
25.6200 1051.0000 1.0000
25.6400 1093.0000 1.0000
25.6600 1095.0000 1.0000
25.6800 1061.0000 1.0000
25.7000 1008.0000 1.0000
25.7200 982.0000 1.0000
25.7400 1084.0000 1.0000
25.7600 1058.0000 1.0000
25.7800 1005.0000 1.0000
25.8000 1019.0000 1.0000
25.8200 1024.0000 1.0000
25.8400 1045.0000 1.0000
25.8600 1027.0000 1.0000
25.8800 1030.0000 1.0000
25.9000 1005.0000 1.0000
25.9200 996.0000 1.0000
25.9400 1018.0000 1.0000
25.9600 999.0000 1.0000
25.9800 1048.0000 1.0000
26.0000 986.0000 1.0000
26.0200 1069.0000 1.0000
26.0400 980.0000 1.0000
26.0600 1015.0000 1.0000
26.0800 981.0000 1.0000
26.1000 1025.0000 1.0000
26.1200 1018.0000 1.0000
26.1400 996.0000 1.0000
26.1600 1014.0000 1.0000
26.1800 1035.0000 1.0000
26.2000 1035.0000 1.0000
26.2200 1060.0000 1.0000
26.2400 1028.0000 1.0000
26.2600 1004.0000 1.0000
26.2800 990.0000 1.0000
26.3000 1040.0000 1.0000
26.3200 967.0000 1.0000
26.3400 988.0000 1.0000
26.3600 1012.0000 1.0000
26.3800 975.0000 1.0000
26.4000 1019.0000 1.0000
26.4200 970.0000 1.0000
26.4400 978.0000 1.0000
26.4600 924.0000 1.0000
26.4800 984.0000 1.0000
26.5000 1002.0000 1.0000
26.5200 989.0000 1.0000
26.5400 1008.0000 1.0000
26.5600 1013.0000 1.0000
26.5800 971.0000 1.0000
26.6000 986.0000 1.0000
26.6200 939.0000 1.0000
26.6400 969.0000 1.0000
26.6600 991.0000 1.0000
26.6800 928.0000 1.0000
26.7000 925.0000 1.0000
26.7200 947.0000 1.0000
26.7400 977.0000 1.0000
26.7600 906.0000 1.0000
26.7800 970.0000 1.0000
26.8000 932.0000 1.0000
26.8200 996.0000 1.0000
26.8400 950.0000 1.0000
26.8600 933.0000 1.0000
