*RAS_DATA_START
*RAS_HEADER_START
*DISP_FMT_X "%.2f"
*DISP_FMT_Y "%.0f"
*DISP_FULLSCALE "3638.0000000000"
*DISP_LINE_COLOR "255.0000000000"
*DISP_LINE_STYLE "0.0000000000"
*DISP_LINE_WIDTH "0.2500000000"
*DISP_NOTE "測定データ-3"
*DISP_OFFSET_Y "0.0000000000"
*DISP_PEAKSEARCH_UNIT_Y "cps"
*DISP_RANGE_BOTTOM "0.0000000000"
*DISP_RANGE_LEFT "20.0000000000"
*DISP_RANGE_LOGCUTOFF "0.0100000000"
*DISP_RANGE_RIGHT "80.0000000000"
*DISP_RANGE_TOP "3638.0000000000"
*DISP_SCALE_MODE_Y "0.0000000000"
*DISP_TAB_NAME "2θ/θ"
*DISP_TITLE_Y "強度"
*DISP_UNIT_Y "cps"
*DISP_WINDOW_NAME "MSG_MACROENGINE"
*FILE_COMMENT " "
*FILE_MD5 ""
*FILE_MEMO " "
*FILE_OPERATOR "Administrator"
*FILE_SAMPLE " "
*FILE_TYPE "RAS_RAW"
*FILE_USERGROUP "システムマネージャ"
*FILE_VERSION "1.0000000000"
*HW_ATTACHMENT_ID "ATT0025"
*HW_ATTACHMENT_NAME "標準|Standard"
*HW_COUNTER_ID-0 "CUT0025"
*HW_COUNTER_ID-1 "CUT0020"
*HW_COUNTER_ID-2 "CUT0020"
*HW_COUNTER_ID-3 "CSL0021"
*HW_COUNTER_ID-4 "CMC0021"
*HW_COUNTER_NAME-0 "D/teX Ultra|D/teX Ultra"
*HW_COUNTER_NAME-1 "None|None"
*HW_COUNTER_NAME-2 "None|None"
*HW_COUNTER_NAME-3 "BBM|BBM"
*HW_COUNTER_NAME-4 "検出器モノクロメータ|Detector monochromator"
*HW_COUNTER_SELECT_NAME "D/teX Ultra|D/teX Ultra"
*HW_GONIOMETER_ID "GON0023"
*HW_GONIOMETER_NAME "SmartLab|SmartLab"
*HW_GONIOMETER_RADIUS-0 "90.0"
*HW_GONIOMETER_RADIUS-1 "114.0"
*HW_GONIOMETER_RADIUS-2 "190.0"
*HW_GONIOMETER_RADIUS-3 "300.0"
*HW_GONIOMETER_RADIUS-4 "187.0"
*HW_GONIOMETER_RADIUS-5 "300.0"
*HW_GONIOMETER_RADIUS-6 "113.0"
*HW_GONIOMETER_RADIUS-7 "331.0"
*HW_I_OPT_ID-0 "CBO0021"
*HW_I_OPT_ID-1 "ICR0023"
*HW_I_OPT_ID-2 "ISL0021"
*HW_I_OPT_ID-3 "ISO0021"
*HW_I_OPT_ID-4 "IAD0021"
*HW_I_OPT_ID-5 "IPR0001"
*HW_I_OPT_NAME-0 "CBOユニット|CBO unit"
*HW_I_OPT_NAME-1 "標準入射光学ユニット|Standard incident optical unit"
*HW_I_OPT_NAME-2 "標準入射スリットボックス|Standard incident slit box"
*HW_I_OPT_NAME-3 "入射平行スリット|Incident parallel slit"
*HW_I_OPT_NAME-4 "長手制限スリット|Length limiting slit"
*HW_I_OPT_NAME-5 "None|None"
*HW_R_ATTENUATER_AUTOMODE "0"
*HW_R_OPT_ID-0 "RSS0021"
*HW_R_OPT_ID-1 "RCR0023"
*HW_R_OPT_ID-2 "RSO0021"
*HW_R_OPT_ID-3 "RRS0021"
*HW_R_OPT_ID-4 "ATN0021"
*HW_R_OPT_ID-5 "RFL0021"
*HW_R_OPT_ID-6 "RAD0021"
*HW_R_OPT_NAME-0 "標準受光スリットボックス1|Standard receiving slit box # 1"
*HW_R_OPT_NAME-1 "標準受光光学ユニット1|Standard receiving unit # 1"
*HW_R_OPT_NAME-2 "標準受光光学ユニット2|Standard receiving optical unit # 2"
*HW_R_OPT_NAME-3 "標準受光スリットボックス2|Standard receiving slit box # 2"
*HW_R_OPT_NAME-4 "標準アッテネータ|Standard Attenuator"
*HW_R_OPT_NAME-5 "Cu Kβ|Cu K-beta"
*HW_R_OPT_NAME-6 "調整用受光スリット|Alignment receiving slit"
*HW_SAMPLE_HOLDER_ID "SMP0023"
*HW_SAMPLE_HOLDER_NAME "標準Zステージ|Standard Z stage"
*HW_XG_CURRENT_MAX "50"
*HW_XG_CURRENT_MIN "2"
*HW_XG_CURRENT_RESOLUTION "2"
*HW_XG_CURRENT_UNIT "mA"
*HW_XG_FOCUS "1mm x 10mm"
*HW_XG_FOCUS_TYPE "Normal"
*HW_XG_ID ""
*HW_XG_NAME "3kW 封入管(ID:1200)|3kW Sealed tube(ID:1200)"
*HW_XG_TARGET_ATOMIC_NUMBER "29.0000000000"
*HW_XG_TARGET_NAME "Cu"
*HW_XG_TYPE "Hermetic"
*HW_XG_VOLTAGE_MAX "60"
*HW_XG_VOLTAGE_MIN "20"
*HW_XG_VOLTAGE_RESOLUTION "2"
*HW_XG_VOLTAGE_UNIT "kV"
*HW_XG_WATT_MAX "2"
*HW_XG_WATT_UNIT "kW"
*HW_XG_WAVE_LENGTH_ALPHA1 "1.540593"
*HW_XG_WAVE_LENGTH_ALPHA2 "1.544414"
*HW_XG_WAVE_LENGTH_BETA "1.392250"
*MEAS_COND_AXIS_NAME-0 "2θ/θ"
*MEAS_COND_AXIS_NAME-1 "2θ"
*MEAS_COND_AXIS_NAME-2 "ω"
*MEAS_COND_AXIS_NAME-3 "Z"
*MEAS_COND_AXIS_NAME-4 "2θ/ω"
*MEAS_COND_AXIS_NAME-5 "θs"
*MEAS_COND_AXIS_NAME-6 "θd"
*MEAS_COND_AXIS_NAME-7 "Ts"
*MEAS_COND_AXIS_NAME-8 "CBO選択スリット"
*MEAS_COND_AXIS_NAME-9 "M"
*MEAS_COND_AXIS_NAME-10 "入射平行スリット"
*MEAS_COND_AXIS_NAME-11 "入射スリット"
*MEAS_COND_AXIS_NAME-12 ""
*MEAS_COND_AXIS_NAME-13 "Zs"
*MEAS_COND_AXIS_NAME-14 "入射光学素子"
*MEAS_COND_AXIS_NAME-15 "長手制限スリット"
*MEAS_COND_AXIS_NAME-16 "センタースリット"
*MEAS_COND_AXIS_NAME-17 "フィルター"
*MEAS_COND_AXIS_NAME-18 "受光スリット1"
*MEAS_COND_AXIS_NAME-19 "受光スリット2"
*MEAS_COND_AXIS_NAME-20 "受光光学素子"
*MEAS_COND_AXIS_NAME-21 "受光平行スリット"
*MEAS_COND_AXIS_NAME-22 "調整用受光スリット"
*MEAS_COND_AXIS_NAME-23 ""
*MEAS_COND_AXIS_NAME-24 ""
*MEAS_COND_AXIS_NAME-25 "Zd"
*MEAS_COND_AXIS_NAME-26 "アッテネータ"
*MEAS_COND_AXIS_NAME-27 "検出器モノクロメータ"
*MEAS_COND_AXIS_NAME-28 "モノクロメータスリット"
*MEAS_COND_AXIS_NAME-29 "プライマリビーム"
*MEAS_COND_AXIS_NAME-30 "PHA"
*MEAS_COND_AXIS_NAME_INTERNAL-0 "TwoThetaTheta"
*MEAS_COND_AXIS_NAME_INTERNAL-1 "TwoTheta"
*MEAS_COND_AXIS_NAME_INTERNAL-2 "Omega"
*MEAS_COND_AXIS_NAME_INTERNAL-3 "Z"
*MEAS_COND_AXIS_NAME_INTERNAL-4 "TwoThetaOmega"
*MEAS_COND_AXIS_NAME_INTERNAL-5 "ThetaS"
*MEAS_COND_AXIS_NAME_INTERNAL-6 "ThetaD"
*MEAS_COND_AXIS_NAME_INTERNAL-7 "Ts"
*MEAS_COND_AXIS_NAME_INTERNAL-8 "CBO"
*MEAS_COND_AXIS_NAME_INTERNAL-9 "CBO-M"
*MEAS_COND_AXIS_NAME_INTERNAL-10 "IncidentSollerSlit"
*MEAS_COND_AXIS_NAME_INTERNAL-11 "IncidentSlitBox"
*MEAS_COND_AXIS_NAME_INTERNAL-12 "IncidentSlitBox-_Axis"
*MEAS_COND_AXIS_NAME_INTERNAL-13 "Zs"
*MEAS_COND_AXIS_NAME_INTERNAL-14 "IncidentMonochromator"
*MEAS_COND_AXIS_NAME_INTERNAL-15 "IncidentAxdSlit"
*MEAS_COND_AXIS_NAME_INTERNAL-16 "CenterSlit"
*MEAS_COND_AXIS_NAME_INTERNAL-17 "Filter"
*MEAS_COND_AXIS_NAME_INTERNAL-18 "ReceivingSlitBox1"
*MEAS_COND_AXIS_NAME_INTERNAL-19 "ReceivingSlitBox2"
*MEAS_COND_AXIS_NAME_INTERNAL-20 "ReceivingOptics"
*MEAS_COND_AXIS_NAME_INTERNAL-21 "ReceivingSollerSlit"
*MEAS_COND_AXIS_NAME_INTERNAL-22 "ReceivingAxdSlit"
*MEAS_COND_AXIS_NAME_INTERNAL-23 "ReceivingSlitBox1-_Axis"
*MEAS_COND_AXIS_NAME_INTERNAL-24 "ReceivingSlitBox2-_Axis"
*MEAS_COND_AXIS_NAME_INTERNAL-25 "ReceivingSlitBox2-Zd"
*MEAS_COND_AXIS_NAME_INTERNAL-26 "Attenuator"
*MEAS_COND_AXIS_NAME_INTERNAL-27 "CounterMonochromator"
*MEAS_COND_AXIS_NAME_INTERNAL-28 "CounterSlit"
*MEAS_COND_AXIS_NAME_INTERNAL-29 "IncidentPrimary"
*MEAS_COND_AXIS_NAME_INTERNAL-30 "PHA"
*MEAS_COND_AXIS_NAME_MAGICNO-0 "83951616.0000000000"
*MEAS_COND_AXIS_NAME_MAGICNO-1 "268632064.0000000000"
*MEAS_COND_AXIS_NAME_MAGICNO-2 "268500992.0000000000"
*MEAS_COND_AXIS_NAME_MAGICNO-3 "285278208.0000000000"
*MEAS_COND_AXIS_NAME_MAGICNO-4 "83951616.0000000000"
*MEAS_COND_AXIS_NAME_MAGICNO-5 "131072.0000000000"
*MEAS_COND_AXIS_NAME_MAGICNO-6 "131072.0000000000"
*MEAS_COND_AXIS_NAME_MAGICNO-7 "318898176.0000000000"
*MEAS_COND_AXIS_NAME_MAGICNO-8 "20971521.0000000000"
*MEAS_COND_AXIS_NAME_MAGICNO-9 "285343744.0000000000"
*MEAS_COND_AXIS_NAME_MAGICNO-10 "20971521.0000000000"
*MEAS_COND_AXIS_NAME_MAGICNO-11 "22020097.0000000000"
*MEAS_COND_AXIS_NAME_MAGICNO-12 "25165824.0000000000"
*MEAS_COND_AXIS_NAME_MAGICNO-13 "318898176.0000000000"
*MEAS_COND_AXIS_NAME_MAGICNO-14 "1.0000000000"
*MEAS_COND_AXIS_NAME_MAGICNO-15 "20971521.0000000000"
*MEAS_COND_AXIS_NAME_MAGICNO-16 "20971521.0000000000"
*MEAS_COND_AXIS_NAME_MAGICNO-17 "20971521.0000000000"
*MEAS_COND_AXIS_NAME_MAGICNO-18 "23068673.0000000000"
*MEAS_COND_AXIS_NAME_MAGICNO-19 "23068673.0000000000"
*MEAS_COND_AXIS_NAME_MAGICNO-20 "20971521.0000000000"
*MEAS_COND_AXIS_NAME_MAGICNO-21 "20971521.0000000000"
*MEAS_COND_AXIS_NAME_MAGICNO-22 "20971521.0000000000"
*MEAS_COND_AXIS_NAME_MAGICNO-23 "25165824.0000000000"
*MEAS_COND_AXIS_NAME_MAGICNO-24 "25165824.0000000000"
*MEAS_COND_AXIS_NAME_MAGICNO-25 "285343744.0000000000"
*MEAS_COND_AXIS_NAME_MAGICNO-26 "17301505.0000000000"
*MEAS_COND_AXIS_NAME_MAGICNO-27 "20971521.0000000000"
*MEAS_COND_AXIS_NAME_MAGICNO-28 "20971521.0000000000"
*MEAS_COND_AXIS_NAME_MAGICNO-29 "20971521.0000000000"
*MEAS_COND_AXIS_NAME_MAGICNO-30 "0.0000000000"
*MEAS_COND_AXIS_OFFSET-0 "-"
*MEAS_COND_AXIS_OFFSET-1 "-0.1081000000"
*MEAS_COND_AXIS_OFFSET-2 "0.3758000000"
*MEAS_COND_AXIS_OFFSET-3 "-"
*MEAS_COND_AXIS_OFFSET-4 "-"
*MEAS_COND_AXIS_OFFSET-5 "0.3758000000"
*MEAS_COND_AXIS_OFFSET-6 "-0.4839000000"
*MEAS_COND_AXIS_OFFSET-7 "-"
*MEAS_COND_AXIS_OFFSET-8 "-"
*MEAS_COND_AXIS_OFFSET-9 "-"
*MEAS_COND_AXIS_OFFSET-10 "-"
*MEAS_COND_AXIS_OFFSET-11 "-"
*MEAS_COND_AXIS_OFFSET-12 "-"
*MEAS_COND_AXIS_OFFSET-13 "-"
*MEAS_COND_AXIS_OFFSET-14 "-"
*MEAS_COND_AXIS_OFFSET-15 "-"
*MEAS_COND_AXIS_OFFSET-16 "-"
*MEAS_COND_AXIS_OFFSET-17 "-"
*MEAS_COND_AXIS_OFFSET-18 "-"
*MEAS_COND_AXIS_OFFSET-19 "-"
*MEAS_COND_AXIS_OFFSET-20 "-"
*MEAS_COND_AXIS_OFFSET-21 "-"
*MEAS_COND_AXIS_OFFSET-22 "-"
*MEAS_COND_AXIS_OFFSET-23 "-"
*MEAS_COND_AXIS_OFFSET-24 "-"
*MEAS_COND_AXIS_OFFSET-25 "-"
*MEAS_COND_AXIS_OFFSET-26 "-"
*MEAS_COND_AXIS_OFFSET-27 "-"
*MEAS_COND_AXIS_OFFSET-28 "-"
*MEAS_COND_AXIS_OFFSET-29 "-"
*MEAS_COND_AXIS_OFFSET-30 "-"
*MEAS_COND_AXIS_POSITION-0 "0.0000000000"
*MEAS_COND_AXIS_POSITION-1 "0.0000000000"
*MEAS_COND_AXIS_POSITION-2 "0.0000000000"
*MEAS_COND_AXIS_POSITION-3 "-0.5500000000"
*MEAS_COND_AXIS_POSITION-4 "0.0000000000"
*MEAS_COND_AXIS_POSITION-5 "0.0000000000"
*MEAS_COND_AXIS_POSITION-6 "0.0000000000"
*MEAS_COND_AXIS_POSITION-7 "-0.4278800000"
*MEAS_COND_AXIS_POSITION-8 "BB"
*MEAS_COND_AXIS_POSITION-9 "0.0000000000"
*MEAS_COND_AXIS_POSITION-10 "Soller_slit_5.0deg"
*MEAS_COND_AXIS_POSITION-11 "2/3deg"
*MEAS_COND_AXIS_POSITION-12 "2.2088000000"
*MEAS_COND_AXIS_POSITION-13 "-0.4140600000"
*MEAS_COND_AXIS_POSITION-14 "0.0000000000"
*MEAS_COND_AXIS_POSITION-15 "10.0mm"
*MEAS_COND_AXIS_POSITION-16 "None"
*MEAS_COND_AXIS_POSITION-17 "Cu_K-beta"
*MEAS_COND_AXIS_POSITION-18 "13.000mm"
*MEAS_COND_AXIS_POSITION-19 "13.000mm"
*MEAS_COND_AXIS_POSITION-20 "No_unit"
*MEAS_COND_AXIS_POSITION-21 "Soller_slit_5.0deg"
*MEAS_COND_AXIS_POSITION-22 "None"
*MEAS_COND_AXIS_POSITION-23 "13.0000000000"
*MEAS_COND_AXIS_POSITION-24 "13.0000000000"
*MEAS_COND_AXIS_POSITION-25 "0.0109400000"
*MEAS_COND_AXIS_POSITION-26 "Open"
*MEAS_COND_AXIS_POSITION-27 "None"
*MEAS_COND_AXIS_POSITION-28 "None"
*MEAS_COND_AXIS_POSITION-29 "None"
*MEAS_COND_AXIS_POSITION-30 "38.0000000000"
*MEAS_COND_AXIS_UNIT-0 "deg"
*MEAS_COND_AXIS_UNIT-1 "deg"
*MEAS_COND_AXIS_UNIT-2 "deg"
*MEAS_COND_AXIS_UNIT-3 "mm"
*MEAS_COND_AXIS_UNIT-4 "deg"
*MEAS_COND_AXIS_UNIT-5 "deg"
*MEAS_COND_AXIS_UNIT-6 "deg"
*MEAS_COND_AXIS_UNIT-7 "mm"
*MEAS_COND_AXIS_UNIT-8 ""
*MEAS_COND_AXIS_UNIT-9 "pulse"
*MEAS_COND_AXIS_UNIT-10 ""
*MEAS_COND_AXIS_UNIT-11 ""
*MEAS_COND_AXIS_UNIT-12 "mm"
*MEAS_COND_AXIS_UNIT-13 "mm"
*MEAS_COND_AXIS_UNIT-14 ""
*MEAS_COND_AXIS_UNIT-15 ""
*MEAS_COND_AXIS_UNIT-16 ""
*MEAS_COND_AXIS_UNIT-17 ""
*MEAS_COND_AXIS_UNIT-18 ""
*MEAS_COND_AXIS_UNIT-19 ""
*MEAS_COND_AXIS_UNIT-20 ""
*MEAS_COND_AXIS_UNIT-21 ""
*MEAS_COND_AXIS_UNIT-22 ""
*MEAS_COND_AXIS_UNIT-23 "mm"
*MEAS_COND_AXIS_UNIT-24 "mm"
*MEAS_COND_AXIS_UNIT-25 "mm"
*MEAS_COND_AXIS_UNIT-26 ""
*MEAS_COND_AXIS_UNIT-27 ""
*MEAS_COND_AXIS_UNIT-28 ""
*MEAS_COND_AXIS_UNIT-29 ""
*MEAS_COND_AXIS_UNIT-30 "div"
*MEAS_COND_COUNTER_CNTLOSS_CORR "0.0000000000"
*MEAS_COND_COUNTER_PHABASE "38.0000000000"
*MEAS_COND_COUNTER_PHAWINDOW "16.0000000000"
*MEAS_COND_COUNTER_PHA_UNIT "div"
*MEAS_COND_COUNTER_TAUDIFF "30.0000000000"
*MEAS_COND_COUNTER_TAUINT "0.0000000000"
*MEAS_COND_IRRADIATION_MODE "OFF"
*MEAS_COND_IRRADIATION_WIDTH ""
*MEAS_COND_OPT_ATTR "集中法"
*MEAS_COND_OPT_NAME "@集中法"
*MEAS_COND_UNSYMMETRIC_MODE "OFF"
*MEAS_COND_XG_CURRENT "30.0000000000"
*MEAS_COND_XG_VOLTAGE "40.0000000000"
*MEAS_COND_XG_WAVE_TYPE "Ka"
*MEAS_DATA_COUNT "3001.0000000000"
*MEAS_SCAN_AXIS_X "2θ/θ"
*MEAS_SCAN_AXIS_X_INTERNAL "TwoThetaTheta"
*MEAS_SCAN_END_TIME "09/04/20 11:33:41"
*MEAS_SCAN_MODE "CONTINUOUS"
*MEAS_SCAN_MONITOR "0"
*MEAS_SCAN_RESOLUTION_X "0.0002"
*MEAS_SCAN_SPEED "2.0"
*MEAS_SCAN_SPEED_UNIT "deg/min"
*MEAS_SCAN_START "20.0000000000"
*MEAS_SCAN_START_TIME "09/04/20 11:02:01"
*MEAS_SCAN_STEP "0.0200000000"
*MEAS_SCAN_STOP "80.0000000000"
*MEAS_SCAN_UNIT_X "deg"
*MEAS_SCAN_UNIT_Y "counts"
*RAS_HEADER_END
*RAS_INT_START
20.0000 1819.0000 1.0000
20.0200 1766.0000 1.0000
20.0400 1710.0000 1.0000
20.0600 1797.0000 1.0000
20.0800 1766.0000 1.0000
20.1000 1778.0000 1.0000
20.1200 1728.0000 1.0000
20.1400 1713.0000 1.0000
20.1600 1789.0000 1.0000
20.1800 1767.0000 1.0000
20.2000 1780.0000 1.0000
20.2200 1749.0000 1.0000
20.2400 1712.0000 1.0000
20.2600 1704.0000 1.0000
20.2800 1778.0000 1.0000
20.3000 1787.0000 1.0000
20.3200 1810.0000 1.0000
20.3400 1735.0000 1.0000
20.3600 1751.0000 1.0000
20.3800 1725.0000 1.0000
20.4000 1727.0000 1.0000
20.4200 1701.0000 1.0000
20.4400 1713.0000 1.0000
20.4600 1768.0000 1.0000
20.4800 1686.0000 1.0000
20.5000 1714.0000 1.0000
20.5200 1735.0000 1.0000
20.5400 1721.0000 1.0000
20.5600 1709.0000 1.0000
20.5800 1753.0000 1.0000
20.6000 1660.0000 1.0000
20.6200 1771.0000 1.0000
20.6400 1730.0000 1.0000
20.6600 1726.0000 1.0000
20.6800 1769.0000 1.0000
20.7000 1672.0000 1.0000
20.7200 1711.0000 1.0000
20.7400 1733.0000 1.0000
20.7600 1674.0000 1.0000
20.7800 1646.0000 1.0000
20.8000 1690.0000 1.0000
20.8200 1643.0000 1.0000
20.8400 1662.0000 1.0000
20.8600 1648.0000 1.0000
20.8800 1694.0000 1.0000
20.9000 1715.0000 1.0000
20.9200 1661.0000 1.0000
20.9400 1595.0000 1.0000
20.9600 1590.0000 1.0000
20.9800 1610.0000 1.0000
21.0000 1625.0000 1.0000
21.0200 1640.0000 1.0000
21.0400 1624.0000 1.0000
21.0600 1657.0000 1.0000
21.0800 1634.0000 1.0000
21.1000 1618.0000 1.0000
21.1200 1653.0000 1.0000
21.1400 1581.0000 1.0000
21.1600 1629.0000 1.0000
21.1800 1685.0000 1.0000
21.2000 1648.0000 1.0000
21.2200 1632.0000 1.0000
21.2400 1550.0000 1.0000
21.2600 1579.0000 1.0000
21.2800 1646.0000 1.0000
21.3000 1595.0000 1.0000
21.3200 1660.0000 1.0000
21.3400 1592.0000 1.0000
21.3600 1554.0000 1.0000
21.3800 1592.0000 1.0000
21.4000 1658.0000 1.0000
21.4200 1627.0000 1.0000
21.4400 1535.0000 1.0000
21.4600 1506.0000 1.0000
21.4800 1541.0000 1.0000
21.5000 1605.0000 1.0000
21.5200 1645.0000 1.0000
21.5400 1571.0000 1.0000
21.5600 1564.0000 1.0000
21.5800 1606.0000 1.0000
21.6000 1577.0000 1.0000
21.6200 1514.0000 1.0000
21.6400 1564.0000 1.0000
21.6600 1500.0000 1.0000
21.6800 1534.0000 1.0000
21.7000 1624.0000 1.0000
21.7200 1570.0000 1.0000
21.7400 1517.0000 1.0000
21.7600 1583.0000 1.0000
21.7800 1547.0000 1.0000
21.8000 1515.0000 1.0000
21.8200 1548.0000 1.0000
21.8400 1510.0000 1.0000
21.8600 1515.0000 1.0000
21.8800 1537.0000 1.0000
21.9000 1562.0000 1.0000
21.9200 1513.0000 1.0000
21.9400 1490.0000 1.0000
21.9600 1510.0000 1.0000
21.9800 1531.0000 1.0000
22.0000 1473.0000 1.0000
22.0200 1552.0000 1.0000
22.0400 1475.0000 1.0000
22.0600 1531.0000 1.0000
22.0800 1492.0000 1.0000
22.1000 1477.0000 1.0000
22.1200 1544.0000 1.0000
22.1400 1551.0000 1.0000
22.1600 1489.0000 1.0000
22.1800 1461.0000 1.0000
22.2000 1575.0000 1.0000
22.2200 1503.0000 1.0000
22.2400 1543.0000 1.0000
22.2600 1443.0000 1.0000
22.2800 1431.0000 1.0000
22.3000 1462.0000 1.0000
22.3200 1526.0000 1.0000
22.3400 1544.0000 1.0000
22.3600 1451.0000 1.0000
22.3800 1472.0000 1.0000
22.4000 1467.0000 1.0000
22.4200 1456.0000 1.0000
22.4400 1424.0000 1.0000
22.4600 1495.0000 1.0000
22.4800 1430.0000 1.0000
22.5000 1491.0000 1.0000
22.5200 1399.0000 1.0000
22.5400 1467.0000 1.0000
22.5600 1398.0000 1.0000
22.5800 1461.0000 1.0000
22.6000 1447.0000 1.0000
22.6200 1408.0000 1.0000
22.6400 1422.0000 1.0000
22.6600 1415.0000 1.0000
22.6800 1446.0000 1.0000
22.7000 1391.0000 1.0000
22.7200 1393.0000 1.0000
22.7400 1441.0000 1.0000
22.7600 1426.0000 1.0000
22.7800 1413.0000 1.0000
22.8000 1488.0000 1.0000
22.8200 1398.0000 1.0000
22.8400 1362.0000 1.0000
22.8600 1362.0000 1.0000
22.8800 1420.0000 1.0000
22.9000 1339.0000 1.0000
22.9200 1356.0000 1.0000
22.9400 1469.0000 1.0000
22.9600 1440.0000 1.0000
22.9800 1407.0000 1.0000
23.0000 1392.0000 1.0000
23.0200 1355.0000 1.0000
23.0400 1346.0000 1.0000
23.0600 1366.0000 1.0000
23.0800 1372.0000 1.0000
23.1000 1436.0000 1.0000
23.1200 1378.0000 1.0000
23.1400 1328.0000 1.0000
23.1600 1351.0000 1.0000
23.1800 1365.0000 1.0000
23.2000 1358.0000 1.0000
23.2200 1397.0000 1.0000
23.2400 1328.0000 1.0000
23.2600 1328.0000 1.0000
23.2800 1358.0000 1.0000
23.3000 1304.0000 1.0000
23.3200 1337.0000 1.0000
23.3400 1386.0000 1.0000
23.3600 1306.0000 1.0000
23.3800 1340.0000 1.0000
23.4000 1299.0000 1.0000
23.4200 1255.0000 1.0000
23.4400 1343.0000 1.0000
23.4600 1314.0000 1.0000
23.4800 1342.0000 1.0000
23.5000 1328.0000 1.0000
23.5200 1332.0000 1.0000
23.5400 1360.0000 1.0000
23.5600 1296.0000 1.0000
23.5800 1287.0000 1.0000
23.6000 1315.0000 1.0000
23.6200 1320.0000 1.0000
23.6400 1325.0000 1.0000
23.6600 1342.0000 1.0000
23.6800 1388.0000 1.0000
23.7000 1324.0000 1.0000
23.7200 1323.0000 1.0000
23.7400 1262.0000 1.0000
23.7600 1263.0000 1.0000
23.7800 1319.0000 1.0000
23.8000 1337.0000 1.0000
23.8200 1302.0000 1.0000
23.8400 1295.0000 1.0000
23.8600 1287.0000 1.0000
23.8800 1315.0000 1.0000
23.9000 1287.0000 1.0000
23.9200 1298.0000 1.0000
23.9400 1287.0000 1.0000
23.9600 1303.0000 1.0000
23.9800 1327.0000 1.0000
24.0000 1192.0000 1.0000
24.0200 1286.0000 1.0000
24.0400 1243.0000 1.0000
24.0600 1293.0000 1.0000
24.0800 1260.0000 1.0000
24.1000 1274.0000 1.0000
24.1200 1290.0000 1.0000
24.1400 1336.0000 1.0000
24.1600 1283.0000 1.0000
24.1800 1326.0000 1.0000
24.2000 1274.0000 1.0000
24.2200 1325.0000 1.0000
24.2400 1267.0000 1.0000
24.2600 1313.0000 1.0000
24.2800 1277.0000 1.0000
24.3000 1276.0000 1.0000
24.3200 1261.0000 1.0000
24.3400 1197.0000 1.0000
24.3600 1255.0000 1.0000
24.3800 1302.0000 1.0000
24.4000 1281.0000 1.0000
24.4200 1252.0000 1.0000
24.4400 1212.0000 1.0000
24.4600 1208.0000 1.0000
24.4800 1234.0000 1.0000
24.5000 1250.0000 1.0000
24.5200 1268.0000 1.0000
24.5400 1275.0000 1.0000
24.5600 1195.0000 1.0000
24.5800 1272.0000 1.0000
24.6000 1224.0000 1.0000
24.6200 1189.0000 1.0000
24.6400 1224.0000 1.0000
24.6600 1248.0000 1.0000
24.6800 1199.0000 1.0000
24.7000 1201.0000 1.0000
24.7200 1220.0000 1.0000
24.7400 1219.0000 1.0000
24.7600 1180.0000 1.0000
24.7800 1175.0000 1.0000
24.8000 1186.0000 1.0000
24.8200 1188.0000 1.0000
24.8400 1235.0000 1.0000
24.8600 1191.0000 1.0000
24.8800 1198.0000 1.0000
24.9000 1205.0000 1.0000
24.9200 1180.0000 1.0000
24.9400 1216.0000 1.0000
24.9600 1179.0000 1.0000
24.9800 1205.0000 1.0000
25.0000 1160.0000 1.0000
25.0200 1193.0000 1.0000
25.0400 1138.0000 1.0000
25.0600 1192.0000 1.0000
25.0800 1192.0000 1.0000
25.1000 1161.0000 1.0000
25.1200 1204.0000 1.0000
25.1400 1141.0000 1.0000
25.1600 1222.0000 1.0000
25.1800 1142.0000 1.0000
25.2000 1119.0000 1.0000
25.2200 1154.0000 1.0000
25.2400 1163.0000 1.0000
25.2600 1160.0000 1.0000
25.2800 1164.0000 1.0000
25.3000 1196.0000 1.0000
25.3200 1151.0000 1.0000
25.3400 1153.0000 1.0000
25.3600 1122.0000 1.0000
25.3800 1153.0000 1.0000
25.4000 1156.0000 1.0000
25.4200 1153.0000 1.0000
25.4400 1186.0000 1.0000
25.4600 1152.0000 1.0000
25.4800 1110.0000 1.0000
25.5000 1167.0000 1.0000
25.5200 1101.0000 1.0000
25.5400 1128.0000 1.0000
25.5600 1150.0000 1.0000
25.5800 1141.0000 1.0000
25.6000 1191.0000 1.0000
25.6200 1145.0000 1.0000
25.6400 1147.0000 1.0000
25.6600 1106.0000 1.0000
25.6800 1148.0000 1.0000
25.7000 1125.0000 1.0000
25.7200 1077.0000 1.0000
25.7400 1132.0000 1.0000
25.7600 1062.0000 1.0000
25.7800 1067.0000 1.0000
25.8000 1035.0000 1.0000
25.8200 1114.0000 1.0000
25.8400 1174.0000 1.0000
25.8600 1103.0000 1.0000
25.8800 1138.0000 1.0000
25.9000 1028.0000 1.0000
25.9200 1093.0000 1.0000
25.9400 1065.0000 1.0000
25.9600 1076.0000 1.0000
25.9800 1044.0000 1.0000
26.0000 1093.0000 1.0000
26.0200 1083.0000 1.0000
26.0400 1055.0000 1.0000
26.0600 1075.0000 1.0000
26.0800 1035.0000 1.0000
26.1000 1113.0000 1.0000
26.1200 1107.0000 1.0000
26.1400 1081.0000 1.0000
26.1600 1083.0000 1.0000
26.1800 1075.0000 1.0000
26.2000 1058.0000 1.0000
26.2200 1072.0000 1.0000
26.2400 1076.0000 1.0000
26.2600 1066.0000 1.0000
26.2800 1082.0000 1.0000
26.3000 1121.0000 1.0000
26.3200 1083.0000 1.0000
26.3400 1061.0000 1.0000
26.3600 1108.0000 1.0000
26.3800 1123.0000 1.0000
26.4000 1060.0000 1.0000
26.4200 1052.0000 1.0000
26.4400 1104.0000 1.0000
26.4600 1057.0000 1.0000
26.4800 1063.0000 1.0000
26.5000 968.0000 1.0000
26.5200 1075.0000 1.0000
26.5400 1054.0000 1.0000
26.5600 1047.0000 1.0000
26.5800 1033.0000 1.0000
26.6000 1039.0000 1.0000
26.6200 991.0000 1.0000
26.6400 1085.0000 1.0000
26.6600 1058.0000 1.0000
26.6800 971.0000 1.0000
26.7000 1059.0000 1.0000
26.7200 1096.0000 1.0000
26.7400 995.0000 1.0000
26.7600 1032.0000 1.0000
26.7800 1082.0000 1.0000
26.8000 1065.0000 1.0000
26.8200 1065.0000 1.0000
26.8400 997.0000 1.0000
