Date	2021年06月15日火曜日 04時31分25秒
Spectrometers	USB2+H05879
ダーク	使用
リファレンス	使用
積分時間[msec]	10
平均回数	280
ｽﾑｰｼﾞﾝｸﾞ	10
Electrical Dark	USE
ピクセル数	2048
計測モード	吸光度
保存開始波長[nm]	190.664
保存終了波長[nm]	884.878
保存ﾋﾟｯﾁ波長[nm]	全波長

>>>>>>>>>> Data Start <<<<<<<<<<<<
190.664	0.000000
191.040	0.000000
191.415	0.000000
191.791	-2.222196
192.166	-0.430718
192.542	-1.031591
192.917	0.000000
193.293	-0.552759
193.668	-0.375414
194.044	-1.049506
194.419	0.000000
194.794	-1.421868
195.170	-1.340047
195.545	-1.247965
195.920	-1.124661
196.296	-1.010133
196.671	-0.848206
197.046	-0.695229
197.421	-0.641141
197.796	-0.639418
198.171	-0.603813
198.546	-0.559644
198.922	-0.508105
199.297	-0.487256
199.672	-0.466494
200.047	-0.436687
200.422	-0.405346
200.796	-0.396235
201.171	-0.377211
201.546	-0.380455
201.921	-0.369181
202.296	-0.357685
202.671	-0.334744
203.045	-0.311959
203.420	-0.302979
203.795	-0.282925
204.170	-0.280449
204.544	-0.273844
204.919	-0.276087
205.294	-0.273555
205.668	-0.257514
206.043	-0.244142
206.417	-0.251787
206.792	-0.245383
207.166	-0.238793
207.541	-0.241461
207.915	-0.246974
208.289	-0.229729
208.664	-0.227556
209.038	-0.229154
209.412	-0.213739
209.787	-0.196294
210.161	-0.186718
210.535	-0.188795
210.909	-0.181347
211.284	-0.180057
211.658	-0.188580
212.032	-0.184204
212.406	-0.193617
212.780	-0.189677
213.154	-0.185104
213.528	-0.185685
213.902	-0.186253
214.276	-0.176813
214.650	-0.177388
215.024	-0.173875
215.398	-0.164492
215.772	-0.155453
216.145	-0.157242
216.519	-0.148630
216.893	-0.146468
217.267	-0.151143
217.640	-0.159105
218.014	-0.148562
218.388	-0.135740
218.761	-0.139824
219.135	-0.126828
219.508	-0.127545
219.882	-0.138218
220.256	-0.129019
220.629	-0.118826
221.003	-0.128570
221.376	-0.128280
221.749	-0.138358
222.123	-0.139465
222.496	-0.147412
222.869	-0.149590
223.243	-0.146456
223.616	-0.149987
223.989	-0.157170
224.362	-0.153753
224.736	-0.151475
225.109	-0.147971
225.482	-0.145103
225.855	-0.151095
226.228	-0.156527
226.601	-0.159693
226.974	-0.157166
227.347	-0.149977
227.720	-0.141544
228.093	-0.149574
228.466	-0.161171
228.839	-0.154614
229.212	-0.160017
229.585	-0.167358
229.957	-0.166543
230.330	-0.151830
230.703	-0.147428
231.076	-0.147628
231.448	-0.150818
231.821	-0.156490
232.194	-0.157944
232.566	-0.165819
232.939	-0.169732
233.311	-0.178600
233.684	-0.171591
234.056	-0.172375
234.429	-0.166973
234.801	-0.170611
235.174	-0.170080
235.546	-0.173694
235.918	-0.167214
236.291	-0.163364
236.663	-0.157192
237.035	-0.153217
237.408	-0.133929
237.780	-0.128892
238.152	-0.136961
238.524	-0.142168
238.896	-0.139166
239.268	-0.134163
239.641	-0.126990
240.013	-0.119614
240.385	-0.106015
240.757	-0.104262
241.129	-0.098003
241.500	-0.101531
241.872	-0.097870
242.244	-0.096006
242.616	-0.098965
242.988	-0.097602
243.360	-0.092445
243.731	-0.084247
244.103	-0.085201
244.475	-0.093277
244.847	-0.089781
245.218	-0.088768
245.590	-0.091356
245.961	-0.092426
246.333	-0.088400
246.705	-0.087188
247.076	-0.085370
247.448	-0.079305
247.819	-0.080901
248.190	-0.079640
248.562	-0.080755
248.933	-0.075176
249.305	-0.068621
249.676	-0.068530
250.047	-0.072369
250.418	-0.073111
250.790	-0.072918
251.161	-0.069929
251.532	-0.077596
251.903	-0.079044
252.274	-0.066445
252.645	-0.060208
253.016	-0.065895
253.387	-0.062996
253.758	-0.064456
254.129	-0.067554
254.500	-0.070252
254.871	-0.069946
255.242	-0.074220
255.613	-0.074966
255.984	-0.082470
256.355	-0.080314
256.725	-0.080139
257.096	-0.086289
257.467	-0.090879
257.838	-0.088122
258.208	-0.086665
258.579	-0.085450
258.949	-0.090003
259.320	-0.089495
259.690	-0.082520
260.061	-0.083933
260.431	-0.079501
260.802	-0.075205
261.172	-0.075105
261.543	-0.065801
261.913	-0.061253
262.283	-0.062663
262.654	-0.065065
263.024	-0.067374
263.394	-0.066757
263.764	-0.059000
264.135	-0.055558
264.505	-0.059582
264.875	-0.056217
265.245	-0.049999
265.615	-0.050431
265.985	-0.047296
266.355	-0.046118
266.725	-0.042374
267.095	-0.037202
267.465	-0.036076
267.835	-0.039589
268.205	-0.049695
268.575	-0.052875
268.944	-0.052357
269.314	-0.056129
269.684	-0.057002
270.054	-0.060518
270.423	-0.053417
270.793	-0.054554
271.163	-0.055396
271.532	-0.053737
271.902	-0.054271
272.271	-0.050534
272.641	-0.047796
273.010	-0.052763
273.380	-0.056004
273.749	-0.059813
274.119	-0.057261
274.488	-0.051161
274.857	-0.052473
275.227	-0.050469
275.596	-0.048570
275.965	-0.043898
276.335	-0.042165
276.704	-0.041722
277.073	-0.041106
277.442	-0.038920
277.811	-0.032045
278.180	-0.032402
278.549	-0.030559
278.918	-0.032284
279.287	-0.034293
279.656	-0.030617
280.025	-0.033623
280.394	-0.037228
280.763	-0.029440
281.132	-0.018688
281.501	-0.014017
281.869	-0.018634
282.238	-0.021161
282.607	-0.023710
282.976	-0.027072
283.344	-0.024711
283.713	-0.022664
284.081	-0.021332
284.450	-0.014618
284.819	-0.012506
285.187	-0.006861
285.556	-0.004533
285.924	-0.009779
286.292	-0.010570
286.661	-0.009025
287.029	-0.012119
287.398	-0.009481
287.766	-0.006987
288.134	-0.003345
288.502	-0.005683
288.871	-0.006496
289.239	-0.005240
289.607	-0.005497
289.975	-0.010529
290.343	-0.005708
290.711	-0.010157
291.079	-0.009836
291.447	-0.015614
291.815	-0.014378
292.183	-0.016214
292.551	-0.013755
292.919	-0.015568
293.287	-0.017205
293.655	-0.013137
294.022	-0.011203
294.390	-0.009075
294.758	-0.004691
295.126	-0.010341
295.493	-0.007007
295.861	-0.008051
296.229	-0.008926
296.596	-0.006581
296.964	-0.006942
297.331	-0.001156
297.699	0.008057
298.066	0.007997
298.434	0.013297
298.801	0.013426
299.168	0.014495
299.536	0.018316
299.903	0.013667
300.270	0.014875
300.638	0.019542
301.005	0.030359
301.372	0.036470
301.739	0.046957
302.106	0.053539
302.473	0.061204
302.840	0.071466
303.207	0.085788
303.574	0.100821
303.941	0.112372
304.308	0.121869
304.675	0.130494
305.042	0.140242
305.409	0.151955
305.776	0.168016
306.143	0.187252
306.509	0.203761
306.876	0.227121
307.243	0.246089
307.610	0.271822
307.976	0.291085
308.343	0.312392
308.709	0.331573
309.076	0.355656
309.442	0.375642
309.809	0.399024
310.175	0.418495
310.542	0.438988
310.908	0.455007
311.275	0.468744
311.641	0.486590
312.007	0.503555
312.373	0.525029
312.740	0.544541
313.106	0.560774
313.472	0.579742
313.838	0.595435
314.204	0.610049
314.570	0.621519
314.936	0.632988
315.302	0.643160
315.668	0.652359
316.034	0.664329
316.400	0.675277
316.766	0.684305
317.132	0.694500
317.498	0.701388
317.864	0.706002
318.230	0.711063
318.595	0.717173
318.961	0.723996
319.327	0.730582
319.692	0.735448
320.058	0.736397
320.424	0.739308
320.789	0.742714
321.155	0.745259
321.520	0.748490
321.886	0.752809
322.251	0.756092
322.616	0.757434
322.982	0.759779
323.347	0.761136
323.712	0.762840
324.078	0.764345
324.443	0.764703
324.808	0.764550
325.173	0.765623
325.539	0.767191
325.904	0.767586
326.269	0.768040
326.634	0.768795
326.999	0.769047
327.364	0.769028
327.729	0.770490
328.094	0.771040
328.459	0.771184
328.823	0.771015
329.188	0.771268
329.553	0.770241
329.918	0.770214
330.283	0.770549
330.647	0.770607
331.012	0.770899
331.377	0.770705
331.741	0.769981
332.106	0.769947
332.470	0.770112
332.835	0.769676
333.199	0.769567
333.564	0.769384
333.928	0.769026
334.293	0.768709
334.657	0.767884
335.021	0.767927
335.386	0.767403
335.750	0.766980
336.114	0.766691
336.478	0.766409
336.843	0.765638
337.207	0.765642
337.571	0.765583
337.935	0.765458
338.299	0.764971
338.663	0.764391
339.027	0.764068
339.391	0.763921
339.755	0.763537
340.119	0.763164
340.483	0.762819
340.846	0.762927
341.210	0.762919
341.574	0.762741
341.938	0.762683
342.301	0.763156
342.665	0.762975
343.029	0.763015
343.392	0.763180
343.756	0.762926
344.119	0.762782
344.483	0.763093
344.846	0.763238
345.210	0.763352
345.573	0.763049
345.937	0.763044
346.300	0.763388
346.663	0.763419
347.027	0.763422
347.390	0.763537
347.753	0.763455
348.116	0.763682
348.479	0.763675
348.843	0.763833
349.206	0.764046
349.569	0.763917
349.932	0.763905
350.295	0.764201
350.658	0.764368
351.021	0.764473
351.383	0.764896
351.746	0.765181
352.109	0.765145
352.472	0.765090
352.835	0.764900
353.197	0.765218
353.560	0.765441
353.923	0.765372
354.285	0.765403
354.648	0.765506
355.011	0.765456
355.373	0.765896
355.736	0.766049
356.098	0.765905
356.461	0.766013
356.823	0.766080
357.185	0.766484
357.548	0.766605
357.910	0.766508
358.272	0.766370
358.635	0.766095
358.997	0.765843
359.359	0.765963
359.721	0.765897
360.083	0.765960
360.445	0.766017
360.807	0.765912
361.169	0.765860
361.531	0.766018
361.893	0.766110
362.255	0.766213
362.617	0.766471
362.979	0.766306
363.341	0.766126
363.703	0.766282
364.064	0.766391
364.426	0.766458
364.788	0.766312
365.149	0.766282
365.511	0.766429
365.873	0.766578
366.234	0.766652
366.596	0.767032
366.957	0.767014
367.319	0.767359
367.680	0.767361
368.042	0.767316
368.403	0.767548
368.764	0.767751
369.126	0.767564
369.487	0.767582
369.848	0.767539
370.209	0.767414
370.570	0.767356
370.931	0.767371
371.293	0.767451
371.654	0.767294
372.015	0.767348
372.376	0.767347
372.737	0.767265
373.098	0.767217
373.458	0.767201
373.819	0.767302
374.180	0.767257
374.541	0.767271
374.902	0.767114
375.263	0.767145
375.623	0.767220
375.984	0.767406
376.345	0.767341
376.705	0.767547
377.066	0.767630
377.426	0.767553
377.787	0.767614
378.147	0.767816
378.508	0.767824
378.868	0.767749
379.228	0.767848
379.589	0.767693
379.949	0.767682
380.309	0.767684
380.670	0.767550
381.030	0.767441
381.390	0.767488
381.750	0.767198
382.110	0.767062
382.470	0.767072
382.830	0.767006
383.190	0.766899
383.550	0.766481
383.910	0.766445
384.270	0.766277
384.630	0.766050
384.990	0.765943
385.350	0.765732
385.709	0.765286
386.069	0.765203
386.429	0.765051
386.788	0.764791
387.148	0.764535
387.508	0.764217
387.867	0.763924
388.227	0.763613
388.586	0.763356
388.946	0.763145
389.305	0.762920
389.665	0.762619
390.024	0.762111
390.383	0.761851
390.743	0.761465
391.102	0.761199
391.461	0.760656
391.820	0.760196
392.179	0.759640
392.539	0.759096
392.898	0.758668
393.257	0.758318
393.616	0.757915
393.975	0.757267
394.334	0.756703
394.693	0.756207
395.051	0.755793
395.410	0.755240
395.769	0.754835
396.128	0.754480
396.487	0.753937
396.845	0.753209
397.204	0.752597
397.563	0.751850
397.921	0.751025
398.280	0.750207
398.638	0.749251
398.997	0.748442
399.355	0.747605
399.714	0.746894
400.072	0.745971
400.431	0.745003
400.789	0.744066
401.147	0.743081
401.506	0.742225
401.864	0.741207
402.222	0.740200
402.580	0.739005
402.938	0.737995
403.297	0.736840
403.655	0.735686
404.013	0.734376
404.371	0.733467
404.729	0.732325
405.087	0.731198
405.444	0.730090
405.802	0.729080
406.160	0.728087
406.518	0.726925
406.876	0.725829
407.233	0.724690
407.591	0.723713
407.949	0.722678
408.306	0.721548
408.664	0.720314
409.022	0.719120
409.379	0.717982
409.737	0.716661
410.094	0.715462
410.451	0.714021
410.809	0.712701
411.166	0.711321
411.523	0.710193
411.881	0.708819
412.238	0.707497
412.595	0.706212
412.952	0.704911
413.310	0.703604
413.667	0.702324
414.024	0.701122
414.381	0.699754
414.738	0.698311
415.095	0.696745
415.452	0.695238
415.809	0.693759
416.165	0.692251
416.522	0.690738
416.879	0.689198
417.236	0.687642
417.593	0.686104
417.949	0.684630
418.306	0.683165
418.663	0.681834
419.019	0.680455
419.376	0.678988
419.732	0.677604
420.089	0.676361
420.445	0.674967
420.802	0.673592
421.158	0.672130
421.514	0.670687
421.871	0.669328
422.227	0.668014
422.583	0.666722
422.939	0.665248
423.295	0.663891
423.652	0.662519
424.008	0.660985
424.364	0.659468
424.720	0.657973
425.076	0.656444
425.432	0.654827
425.788	0.653108
426.143	0.651244
426.499	0.649349
426.855	0.647684
427.211	0.645984
427.567	0.644299
427.922	0.642692
428.278	0.640914
428.634	0.639396
428.989	0.637762
429.345	0.636109
429.700	0.634476
430.056	0.632924
430.411	0.631375
430.767	0.629691
431.122	0.628034
431.478	0.626389
431.833	0.624753
432.188	0.623033
432.543	0.621332
432.899	0.619608
433.254	0.617837
433.609	0.616080
433.964	0.614305
434.319	0.612386
434.674	0.610484
435.029	0.608661
435.384	0.606758
435.739	0.605027
436.094	0.603322
436.449	0.601645
436.804	0.599936
437.158	0.598217
437.513	0.596472
437.868	0.594713
438.223	0.592976
438.577	0.591237
438.932	0.589634
439.287	0.587906
439.641	0.586305
439.996	0.584553
440.350	0.583013
440.704	0.581394
441.059	0.579753
441.413	0.578063
441.768	0.576377
442.122	0.574790
442.476	0.573082
442.830	0.571558
443.185	0.569967
443.539	0.568349
443.893	0.566738
444.247	0.565212
444.601	0.563594
444.955	0.561944
445.309	0.560287
445.663	0.558622
446.017	0.556912
446.371	0.555101
446.724	0.553379
447.078	0.551651
447.432	0.549938
447.786	0.548110
448.139	0.546364
448.493	0.544590
448.847	0.542835
449.200	0.541104
449.554	0.539355
449.907	0.537644
450.261	0.535819
450.614	0.534153
450.968	0.532383
451.321	0.530568
451.674	0.528773
452.027	0.526952
452.381	0.525203
452.734	0.523444
453.087	0.521659
453.440	0.519807
453.793	0.518044
454.146	0.516296
454.499	0.514597
454.852	0.512900
455.205	0.511221
455.558	0.509624
455.911	0.508048
456.264	0.506443
456.617	0.504873
456.970	0.503331
457.322	0.501867
457.675	0.500426
458.028	0.498919
458.380	0.497518
458.733	0.496127
459.086	0.494718
459.438	0.493415
459.791	0.491956
460.143	0.490519
460.496	0.489222
460.848	0.487838
461.200	0.486473
461.553	0.485102
461.905	0.483691
462.257	0.482284
462.609	0.481043
462.961	0.479740
463.314	0.478543
463.666	0.477289
464.018	0.476037
464.370	0.474814
464.722	0.473686
465.074	0.472448
465.426	0.471297
465.777	0.470190
466.129	0.469111
466.481	0.468049
466.833	0.466958
467.184	0.465983
467.536	0.464861
467.888	0.463666
468.239	0.462458
468.591	0.461177
468.943	0.459758
469.294	0.458439
469.646	0.457113
469.997	0.455676
470.348	0.454341
470.700	0.452878
471.051	0.451613
471.402	0.450381
471.754	0.449198
472.105	0.447971
472.456	0.446895
472.807	0.445798
473.158	0.444750
473.509	0.443753
473.860	0.442685
474.211	0.441736
474.562	0.440712
474.913	0.439728
475.264	0.438709
475.615	0.437783
475.966	0.436835
476.316	0.435913
476.667	0.434936
477.018	0.434009
477.368	0.433009
477.719	0.432031
478.070	0.431138
478.420	0.430188
478.771	0.429188
479.121	0.428211
479.472	0.427281
479.822	0.426271
480.172	0.425297
480.523	0.424211
480.873	0.422910
481.223	0.421421
481.573	0.419827
481.924	0.418336
482.274	0.416945
482.624	0.415726
482.974	0.414770
483.324	0.414093
483.674	0.413458
484.024	0.412870
484.374	0.412249
484.724	0.411685
485.073	0.411086
485.423	0.410497
485.773	0.409879
486.123	0.409323
486.472	0.408699
486.822	0.408029
487.172	0.407417
487.521	0.406804
487.871	0.406193
488.220	0.405663
488.570	0.405149
488.919	0.404564
489.268	0.403824
489.618	0.402969
489.967	0.401974
490.316	0.400702
490.666	0.399164
491.015	0.397766
491.364	0.396401
491.713	0.395145
492.062	0.394011
492.411	0.392879
492.760	0.391809
493.109	0.390765
493.458	0.389709
493.807	0.388747
494.156	0.387784
494.505	0.386791
494.853	0.385716
495.202	0.384678
495.551	0.383625
495.900	0.382560
496.248	0.381473
496.597	0.380383
496.945	0.379377
497.294	0.378339
497.642	0.377333
497.991	0.376254
498.339	0.375171
498.688	0.374182
499.036	0.373283
499.384	0.372331
499.732	0.371369
500.081	0.370421
500.429	0.369451
500.777	0.368486
501.125	0.367579
501.473	0.366588
501.821	0.365627
502.169	0.364769
502.517	0.363935
502.865	0.363084
503.213	0.362203
503.561	0.361334
503.908	0.360515
504.256	0.359698
504.604	0.358797
504.952	0.357888
505.299	0.357035
505.647	0.356177
505.994	0.355296
506.342	0.354386
506.689	0.353460
507.037	0.352589
507.384	0.351739
507.732	0.350912
508.079	0.350056
508.426	0.349157
508.774	0.348327
509.121	0.347563
509.468	0.346759
509.815	0.345940
510.162	0.345120
510.509	0.344363
510.856	0.343587
511.203	0.342803
511.550	0.341939
511.897	0.341214
512.244	0.340472
512.591	0.339709
512.938	0.338926
513.284	0.338140
513.631	0.337364
513.978	0.336528
514.324	0.335815
514.671	0.334978
515.018	0.334143
515.364	0.333387
515.711	0.332632
516.057	0.331865
516.403	0.331107
516.750	0.330319
517.096	0.329543
517.443	0.328818
517.789	0.328129
518.135	0.327386
518.481	0.326657
518.827	0.325944
519.173	0.325189
519.519	0.324460
519.865	0.323753
520.211	0.323073
520.557	0.322360
520.903	0.321659
521.249	0.321018
521.595	0.320216
521.941	0.319451
522.287	0.318711
522.632	0.317884
522.978	0.317081
523.324	0.316334
523.669	0.315506
524.015	0.314727
524.360	0.313904
524.706	0.313146
525.051	0.312291
525.397	0.311461
525.742	0.310698
526.087	0.309974
526.433	0.309259
526.778	0.308526
527.123	0.307806
527.468	0.307039
527.813	0.306286
528.158	0.305469
528.504	0.304691
528.849	0.303903
529.193	0.303180
529.538	0.302398
529.883	0.301550
530.228	0.300669
530.573	0.299877
530.918	0.299088
531.263	0.298323
531.607	0.297592
531.952	0.296827
532.296	0.296117
532.641	0.295431
532.986	0.294653
533.330	0.293862
533.675	0.293089
534.019	0.292270
534.363	0.291465
534.708	0.290653
535.052	0.289978
535.396	0.289268
535.741	0.288592
536.085	0.287868
536.429	0.287106
536.773	0.286343
537.117	0.285620
537.461	0.284844
537.805	0.283993
538.149	0.283079
538.493	0.282172
538.837	0.281336
539.181	0.280428
539.524	0.279465
539.868	0.278565
540.212	0.277652
540.556	0.276728
540.899	0.275842
541.243	0.275028
541.586	0.274179
541.930	0.273338
542.273	0.272380
542.617	0.271430
542.960	0.270378
543.304	0.269369
543.647	0.268328
543.990	0.267349
544.333	0.266384
544.677	0.265401
545.020	0.264484
545.363	0.263568
545.706	0.262638
546.049	0.261655
546.392	0.260706
546.735	0.259789
547.078	0.258785
547.421	0.257796
547.764	0.256821
548.106	0.255738
548.449	0.254577
548.792	0.253440
549.135	0.252300
549.477	0.251272
549.820	0.250301
550.162	0.249305
550.505	0.248296
550.847	0.247283
551.190	0.246181
551.532	0.245009
551.875	0.243847
552.217	0.242618
552.559	0.241460
552.901	0.240308
553.244	0.239155
553.586	0.238032
553.928	0.236972
554.270	0.235947
554.612	0.234910
554.954	0.233900
555.296	0.232863
555.638	0.231796
555.980	0.230648
556.322	0.229450
556.663	0.228104
557.005	0.226756
557.347	0.225491
557.689	0.224253
558.030	0.223061
558.372	0.221837
558.713	0.220641
559.055	0.219431
559.396	0.218215
559.738	0.216975
560.079	0.215696
560.421	0.214465
560.762	0.213269
561.103	0.212000
561.444	0.210834
561.786	0.209695
562.127	0.208487
562.468	0.207245
562.809	0.206010
563.150	0.204716
563.491	0.203392
563.832	0.201989
564.173	0.200509
564.514	0.198982
564.855	0.197434
565.195	0.195811
565.536	0.194208
565.877	0.192595
566.218	0.191080
566.558	0.189552
566.899	0.188117
567.239	0.186864
567.580	0.185748
567.920	0.184721
568.261	0.183828
568.601	0.182948
568.941	0.182152
569.282	0.181413
569.622	0.180682
569.962	0.179925
570.302	0.179226
570.643	0.178587
570.983	0.178049
571.323	0.177545
571.663	0.177053
572.003	0.176531
572.343	0.176006
572.683	0.175367
573.022	0.174701
573.362	0.173993
573.702	0.173306
574.042	0.172640
574.381	0.171996
574.721	0.171350
575.061	0.170773
575.400	0.170264
575.740	0.169718
576.079	0.169145
576.419	0.168464
576.758	0.167734
577.097	0.166961
577.437	0.166134
577.776	0.165257
578.115	0.164374
578.454	0.163557
578.794	0.162880
579.133	0.162314
579.472	0.161801
579.811	0.161369
580.150	0.160922
580.489	0.160453
580.828	0.159933
581.167	0.159385
581.505	0.158847
581.844	0.158300
582.183	0.157702
582.522	0.157086
582.860	0.156505
583.199	0.155949
583.538	0.155463
583.876	0.155016
584.215	0.154634
584.553	0.154260
584.891	0.153917
585.230	0.153551
585.568	0.153124
585.906	0.152605
586.245	0.152022
586.583	0.151447
586.921	0.150909
587.259	0.150472
587.597	0.150052
587.935	0.149600
588.273	0.149098
588.611	0.148462
588.949	0.147790
589.287	0.147106
589.625	0.146403
589.963	0.145789
590.300	0.145204
590.638	0.144710
590.976	0.144217
591.313	0.143658
591.651	0.143087
591.989	0.142515
592.326	0.141985
592.664	0.141529
593.001	0.141065
593.338	0.140664
593.676	0.140321
594.013	0.139953
594.350	0.139597
594.687	0.139274
595.025	0.139011
595.362	0.138728
595.699	0.138444
596.036	0.138152
596.373	0.137867
596.710	0.137573
597.047	0.137217
597.384	0.136849
597.720	0.136447
598.057	0.136063
598.394	0.135654
598.731	0.135280
599.067	0.134860
599.404	0.134425
599.741	0.133988
