Date	2021年06月15日火曜日 04時54分54秒
Spectrometers	USB2+H05879
ダーク	使用
リファレンス	使用
積分時間[msec]	10
平均回数	280
ｽﾑｰｼﾞﾝｸﾞ	10
Electrical Dark	USE
ピクセル数	2048
計測モード	吸光度
保存開始波長[nm]	190.664
保存終了波長[nm]	884.878
保存ﾋﾟｯﾁ波長[nm]	全波長

>>>>>>>>>> Data Start <<<<<<<<<<<<
190.664	0.000000
191.040	0.000000
191.415	0.000000
191.791	-2.207063
192.166	-0.284369
192.542	-0.682390
192.917	0.000000
193.293	-0.529521
193.668	-0.597902
194.044	-1.120085
194.419	0.000000
194.794	-1.399508
195.170	-1.324868
195.545	-1.232066
195.920	-1.102685
196.296	-0.990783
196.671	-0.835465
197.046	-0.672702
197.421	-0.615480
197.796	-0.599065
198.171	-0.562229
198.546	-0.515323
198.922	-0.458756
199.297	-0.433478
199.672	-0.407647
200.047	-0.380709
200.422	-0.354052
200.796	-0.338967
201.171	-0.326512
201.546	-0.323990
201.921	-0.313968
202.296	-0.301147
202.671	-0.272726
203.045	-0.240463
203.420	-0.228112
203.795	-0.211785
204.170	-0.206486
204.544	-0.197376
204.919	-0.193912
205.294	-0.189907
205.668	-0.180232
206.043	-0.170852
206.417	-0.174261
206.792	-0.170251
207.166	-0.157704
207.541	-0.155115
207.915	-0.159710
208.289	-0.146023
208.664	-0.143816
209.038	-0.141295
209.412	-0.125826
209.787	-0.103515
210.161	-0.091097
210.535	-0.096640
210.909	-0.096578
211.284	-0.090627
211.658	-0.097825
212.032	-0.099580
212.406	-0.111749
212.780	-0.120922
213.154	-0.115115
213.528	-0.113080
213.902	-0.101260
214.276	-0.093637
214.650	-0.091074
215.024	-0.093620
215.398	-0.097789
215.772	-0.083585
216.145	-0.081927
216.519	-0.078750
216.893	-0.075599
217.267	-0.074851
217.640	-0.081980
218.014	-0.073106
218.388	-0.057834
218.761	-0.053301
219.135	-0.044172
219.508	-0.049408
219.882	-0.054992
220.256	-0.050453
220.629	-0.038618
221.003	-0.043734
221.376	-0.042651
221.749	-0.044816
222.123	-0.042488
222.496	-0.048447
222.869	-0.040983
223.243	-0.031708
223.616	-0.032075
223.989	-0.036981
224.362	-0.032655
224.736	-0.036624
225.109	-0.035951
225.482	-0.037382
225.855	-0.042858
226.228	-0.049960
226.601	-0.052255
226.974	-0.052483
227.347	-0.040316
227.720	-0.031960
228.093	-0.037479
228.466	-0.041962
228.839	-0.037933
229.212	-0.042181
229.585	-0.048356
229.957	-0.052210
230.330	-0.046504
230.703	-0.043946
231.076	-0.048071
231.448	-0.047350
231.821	-0.043785
232.194	-0.041565
232.566	-0.035141
232.939	-0.042709
233.311	-0.046953
233.684	-0.041831
234.056	-0.042191
234.429	-0.038732
234.801	-0.043566
235.174	-0.048317
235.546	-0.054568
235.918	-0.053911
236.291	-0.053298
236.663	-0.057123
237.035	-0.055869
237.408	-0.050204
237.780	-0.042110
238.152	-0.042466
238.524	-0.053686
238.896	-0.050497
239.268	-0.052375
239.641	-0.059957
240.013	-0.058858
240.385	-0.060906
240.757	-0.052976
241.129	-0.045862
241.500	-0.052708
241.872	-0.048167
242.244	-0.046910
242.616	-0.047576
242.988	-0.039923
243.360	-0.024408
243.731	-0.012854
244.103	-0.009729
244.475	-0.008850
244.847	-0.006741
245.218	-0.001583
245.590	-0.002987
245.961	0.001320
246.333	0.011035
246.705	0.008357
247.076	0.009836
247.448	0.020348
247.819	0.025058
248.190	0.036258
248.562	0.030630
248.933	0.028613
249.305	0.036680
249.676	0.039733
250.047	0.028220
250.418	0.032848
250.790	0.032361
251.161	0.029297
251.532	0.027942
251.903	0.027806
252.274	0.038118
252.645	0.045117
253.016	0.038898
253.387	0.036117
253.758	0.033387
254.129	0.027820
254.500	0.029885
254.871	0.032167
255.242	0.027256
255.613	0.017355
255.984	0.010241
256.355	0.016166
256.725	0.022371
257.096	0.026146
257.467	0.025228
257.838	0.032835
258.208	0.035415
258.579	0.036265
258.949	0.031652
259.320	0.038618
259.690	0.036376
260.061	0.039445
260.431	0.043363
260.802	0.047703
261.172	0.052791
261.543	0.055440
261.913	0.061217
262.283	0.058739
262.654	0.056653
263.024	0.060017
263.394	0.068228
263.764	0.069932
264.135	0.065962
264.505	0.068882
264.875	0.066047
265.245	0.062740
265.615	0.065520
265.985	0.062062
266.355	0.061788
266.725	0.061860
267.095	0.059763
267.465	0.062781
267.835	0.053723
268.205	0.044617
268.575	0.046211
268.944	0.045446
269.314	0.040405
269.684	0.039419
270.054	0.040493
270.423	0.047464
270.793	0.049217
271.163	0.050000
271.532	0.051969
271.902	0.053569
272.271	0.050699
272.641	0.060388
273.010	0.059128
273.380	0.059745
273.749	0.056729
274.119	0.058048
274.488	0.070328
274.857	0.068532
275.227	0.069344
275.596	0.071766
275.965	0.074522
276.335	0.071383
276.704	0.072443
277.073	0.072635
277.442	0.076861
277.811	0.072387
278.180	0.070697
278.549	0.067225
278.918	0.067341
279.287	0.066708
279.656	0.075258
280.025	0.072692
280.394	0.061023
280.763	0.066571
281.132	0.069200
281.501	0.075513
281.869	0.074040
282.238	0.064921
282.607	0.066557
282.976	0.070394
283.344	0.073090
283.713	0.075457
284.081	0.076646
284.450	0.083189
284.819	0.090012
285.187	0.098221
285.556	0.106546
285.924	0.108638
286.292	0.107600
286.661	0.109617
287.029	0.113668
287.398	0.108254
287.766	0.109201
288.134	0.107662
288.502	0.108583
288.871	0.110901
289.239	0.110009
289.607	0.116970
289.975	0.114979
290.343	0.117635
290.711	0.117622
291.079	0.113831
291.447	0.117638
291.815	0.120812
292.183	0.121867
292.551	0.123759
292.919	0.112445
293.287	0.110359
293.655	0.107843
294.022	0.113250
294.390	0.118094
294.758	0.121299
295.126	0.122459
295.493	0.128068
295.861	0.137549
296.229	0.132751
296.596	0.137164
296.964	0.134278
297.331	0.128671
297.699	0.136016
298.066	0.136120
298.434	0.135056
298.801	0.139000
299.168	0.135026
299.536	0.137515
299.903	0.133470
300.270	0.134070
300.638	0.141674
301.005	0.150835
301.372	0.159753
301.739	0.166195
302.106	0.161636
302.473	0.163561
302.840	0.173086
303.207	0.187132
303.574	0.195677
303.941	0.213536
304.308	0.221651
304.675	0.234354
305.042	0.251357
305.409	0.274002
305.776	0.287527
306.143	0.302813
306.509	0.321751
306.876	0.350584
307.243	0.372232
307.610	0.397513
307.976	0.424308
308.343	0.453454
308.709	0.482651
309.076	0.513109
309.442	0.542455
309.809	0.578019
310.175	0.611056
310.542	0.640178
310.908	0.664806
311.275	0.687108
311.641	0.717965
312.007	0.749517
312.373	0.784553
312.740	0.810735
313.106	0.833783
313.472	0.866878
313.838	0.899555
314.204	0.927340
314.570	0.942850
314.936	0.963052
315.302	0.989812
315.668	1.013253
316.034	1.035713
316.400	1.065695
316.766	1.079355
317.132	1.103813
317.498	1.119926
317.864	1.132156
318.230	1.147996
318.595	1.167218
318.961	1.187554
319.327	1.204759
319.692	1.223138
320.058	1.233019
320.424	1.250696
320.789	1.264216
321.155	1.276847
321.520	1.293418
321.886	1.313636
322.251	1.329065
322.616	1.341883
322.982	1.348502
323.347	1.355790
323.712	1.366566
324.078	1.369523
324.443	1.379804
324.808	1.385345
325.173	1.399266
325.539	1.409829
325.904	1.416638
326.269	1.420635
326.634	1.425005
326.999	1.430404
327.364	1.432276
327.729	1.438103
328.094	1.442155
328.459	1.447689
328.823	1.450672
329.188	1.453637
329.553	1.453546
329.918	1.455597
330.283	1.459881
330.647	1.466334
331.012	1.470893
331.377	1.473373
331.741	1.475363
332.106	1.477788
332.470	1.480383
332.835	1.479940
333.199	1.481726
333.564	1.485855
333.928	1.489036
334.293	1.492993
334.657	1.491157
335.021	1.493592
335.386	1.494482
335.750	1.493941
336.114	1.494092
336.478	1.496736
336.843	1.495509
337.207	1.495474
337.571	1.499361
337.935	1.501630
338.299	1.500934
338.663	1.499408
339.027	1.500821
339.391	1.502188
339.755	1.502146
340.119	1.500786
340.483	1.499792
340.846	1.500607
341.210	1.499801
341.574	1.499564
341.938	1.498619
342.301	1.498880
342.665	1.499168
343.029	1.499242
343.392	1.499798
343.756	1.499422
344.119	1.497939
344.483	1.498953
344.846	1.498778
345.210	1.498447
345.573	1.496324
345.937	1.495191
346.300	1.495886
346.663	1.494618
347.027	1.494804
347.390	1.495385
347.753	1.495688
348.116	1.495887
348.479	1.495946
348.843	1.494523
349.206	1.493221
349.569	1.493028
349.932	1.494157
350.295	1.493233
350.658	1.493443
351.021	1.494773
351.383	1.495156
351.746	1.494510
352.109	1.494886
352.472	1.496064
352.835	1.496055
353.197	1.496786
353.560	1.498138
353.923	1.497346
354.285	1.497199
354.648	1.496106
355.011	1.495852
355.373	1.496478
355.736	1.497521
356.098	1.496674
356.461	1.497683
356.823	1.498057
357.185	1.499331
357.548	1.499393
357.910	1.499487
358.272	1.498947
358.635	1.497676
358.997	1.497126
359.359	1.499490
359.721	1.500031
360.083	1.500564
360.445	1.500606
360.807	1.500807
361.169	1.500847
361.531	1.502050
361.893	1.502749
362.255	1.504017
362.617	1.504354
362.979	1.504250
363.341	1.503395
363.703	1.503801
364.064	1.504177
364.426	1.504839
364.788	1.504723
365.149	1.505567
365.511	1.505814
365.873	1.507504
366.234	1.507835
366.596	1.508678
366.957	1.508496
367.319	1.508048
367.680	1.507704
368.042	1.507235
368.403	1.508011
368.764	1.508756
369.126	1.509159
369.487	1.509726
369.848	1.509997
370.209	1.511512
370.570	1.512007
370.931	1.513330
371.293	1.513606
371.654	1.514166
372.015	1.515595
372.376	1.516347
372.737	1.516099
373.098	1.516990
373.458	1.516765
373.819	1.518489
374.180	1.520250
374.541	1.520383
374.902	1.520564
375.263	1.521554
375.623	1.522461
375.984	1.523509
376.345	1.523571
376.705	1.524339
377.066	1.525374
377.426	1.525393
377.787	1.525347
378.147	1.526278
378.508	1.525379
378.868	1.526972
379.228	1.528563
379.589	1.528326
379.949	1.528962
380.309	1.529911
380.670	1.529758
381.030	1.530054
381.390	1.530376
381.750	1.529956
382.110	1.530852
382.470	1.532140
382.830	1.532407
383.190	1.533966
383.550	1.534691
383.910	1.536000
384.270	1.536711
384.630	1.537997
384.990	1.538994
385.350	1.539798
385.709	1.540177
386.069	1.542271
386.429	1.542082
386.788	1.542577
387.148	1.544330
387.508	1.545197
387.867	1.545973
388.227	1.547452
388.586	1.548909
388.946	1.549999
389.305	1.550405
389.665	1.551159
390.024	1.552465
390.383	1.553127
390.743	1.553350
391.102	1.553724
391.461	1.553515
391.820	1.553985
392.179	1.553522
392.539	1.554275
392.898	1.555434
393.257	1.556840
393.616	1.558319
393.975	1.559347
394.334	1.559535
394.693	1.559422
395.051	1.560390
395.410	1.561219
395.769	1.562908
396.128	1.563415
396.487	1.563382
396.845	1.564135
397.204	1.564226
397.563	1.564033
397.921	1.564217
398.280	1.564607
398.638	1.564388
398.997	1.565399
399.355	1.565655
399.714	1.566041
400.072	1.565979
400.431	1.564725
400.789	1.564185
401.147	1.563447
401.506	1.563150
401.864	1.563215
402.222	1.563177
402.580	1.561795
402.938	1.561842
403.297	1.560875
403.655	1.560502
404.013	1.560159
404.371	1.560251
404.729	1.560450
405.087	1.560389
405.444	1.560598
405.802	1.559964
406.160	1.559622
406.518	1.558883
406.876	1.558306
407.233	1.558356
407.591	1.558506
407.949	1.559517
408.306	1.559436
408.664	1.559803
409.022	1.560464
409.379	1.560125
409.737	1.559968
410.094	1.560804
410.451	1.561099
410.809	1.561145
411.166	1.560791
411.523	1.561640
411.881	1.562063
412.238	1.561538
412.595	1.560734
412.952	1.560913
413.310	1.560820
413.667	1.561051
414.024	1.562308
414.381	1.562292
414.738	1.561547
415.095	1.561140
415.452	1.560268
415.809	1.559943
416.165	1.559615
416.522	1.559071
416.879	1.558583
417.236	1.558149
417.593	1.557056
417.949	1.555939
418.306	1.555213
418.663	1.556232
419.019	1.555131
419.376	1.553967
419.732	1.553200
420.089	1.553888
420.445	1.552851
420.802	1.552899
421.158	1.552004
421.514	1.550886
421.871	1.550683
422.227	1.549913
422.583	1.549650
422.939	1.548748
423.295	1.548094
423.652	1.546918
424.008	1.545774
424.364	1.545439
424.720	1.544759
425.076	1.545152
425.432	1.544447
425.788	1.544022
426.143	1.542652
426.499	1.542337
426.855	1.542649
427.211	1.542595
427.567	1.541057
427.922	1.540826
428.278	1.538822
428.634	1.538608
428.989	1.537362
429.345	1.536355
429.700	1.536116
430.056	1.535487
430.411	1.535266
430.767	1.534452
431.122	1.533738
431.478	1.532733
431.833	1.531267
432.188	1.530159
432.543	1.528344
432.899	1.527462
433.254	1.526142
433.609	1.524560
433.964	1.523196
434.319	1.521205
434.674	1.519309
435.029	1.518491
435.384	1.516663
435.739	1.516118
436.094	1.514606
436.449	1.513054
436.804	1.511544
437.158	1.510020
437.513	1.508765
437.868	1.507008
438.223	1.505708
438.577	1.503471
438.932	1.502593
439.287	1.501579
439.641	1.499939
439.996	1.498924
440.350	1.496876
440.704	1.495833
441.059	1.494319
441.413	1.492026
441.768	1.490193
442.122	1.489281
442.476	1.486746
442.830	1.484816
443.185	1.483242
443.539	1.481311
443.893	1.479755
444.247	1.477289
444.601	1.475209
444.955	1.472419
445.309	1.470081
445.663	1.467434
446.017	1.465400
446.371	1.462550
446.724	1.459823
447.078	1.457550
447.432	1.454549
447.786	1.451916
448.139	1.448237
448.493	1.445312
448.847	1.442480
449.200	1.439286
449.554	1.435921
449.907	1.433482
450.261	1.430307
450.614	1.426901
450.968	1.423431
451.321	1.419640
451.674	1.416825
452.027	1.413326
452.381	1.410077
452.734	1.406867
453.087	1.403557
453.440	1.399766
453.793	1.396731
454.146	1.393448
454.499	1.389840
454.852	1.386174
455.205	1.382663
455.558	1.379387
455.911	1.376229
456.264	1.372831
456.617	1.369474
456.970	1.366178
457.322	1.362850
457.675	1.360287
458.028	1.357321
458.380	1.354730
458.733	1.352251
459.086	1.349157
459.438	1.346427
459.791	1.343145
460.143	1.340107
460.496	1.337218
460.848	1.334353
461.200	1.331076
461.553	1.327871
461.905	1.325406
462.257	1.322194
462.609	1.319499
462.961	1.316687
463.314	1.313644
463.666	1.310665
464.018	1.307742
464.370	1.304796
464.722	1.301902
465.074	1.298191
465.426	1.295542
465.777	1.292307
466.129	1.289095
466.481	1.286368
466.833	1.283473
467.184	1.281081
467.536	1.278131
467.888	1.275068
468.239	1.272073
468.591	1.268634
468.943	1.265038
469.294	1.260881
469.646	1.257417
469.997	1.253303
470.348	1.249739
470.700	1.246128
471.051	1.243071
471.402	1.240181
471.754	1.237148
472.105	1.234330
472.456	1.231737
472.807	1.228643
473.158	1.226197
473.509	1.223687
473.860	1.221092
474.211	1.218444
474.562	1.215650
474.913	1.213051
475.264	1.210403
475.615	1.207921
475.966	1.205645
476.316	1.202998
476.667	1.200560
477.018	1.198113
477.368	1.195961
477.719	1.193573
478.070	1.190959
478.420	1.188546
478.771	1.186019
479.121	1.183398
479.472	1.180783
479.822	1.178412
480.172	1.175954
480.523	1.173334
480.873	1.170577
481.223	1.167445
481.573	1.164496
481.924	1.161559
482.274	1.158660
482.624	1.156183
482.974	1.153907
483.324	1.151924
483.674	1.150232
484.024	1.148773
484.374	1.147335
484.724	1.145638
485.073	1.143974
485.423	1.142629
485.773	1.140981
486.123	1.139413
486.472	1.137789
486.822	1.136179
487.172	1.134687
487.521	1.133019
487.871	1.131357
488.220	1.129720
488.570	1.127951
488.919	1.125728
489.268	1.123189
489.618	1.120378
489.967	1.117024
490.316	1.113248
490.666	1.109575
491.015	1.105879
491.364	1.102402
491.713	1.099133
492.062	1.096168
492.411	1.093547
492.760	1.090744
493.109	1.088150
493.458	1.085495
493.807	1.083015
494.156	1.080450
494.505	1.077668
494.853	1.075082
495.202	1.072447
495.551	1.069771
495.900	1.067072
496.248	1.064354
496.597	1.061844
496.945	1.059294
497.294	1.056785
497.642	1.054340
497.991	1.051581
498.339	1.048918
498.688	1.046406
499.036	1.043974
499.384	1.041610
499.732	1.039088
500.081	1.036670
500.429	1.034224
500.777	1.031734
501.125	1.029275
501.473	1.026882
501.821	1.024583
502.169	1.022352
502.517	1.020080
502.865	1.017832
503.213	1.015577
503.561	1.013341
503.908	1.011071
504.256	1.008681
504.604	1.006405
504.952	1.003979
505.299	1.001441
505.647	0.999286
505.994	0.996731
506.342	0.994374
506.689	0.992155
507.037	0.989939
507.384	0.987528
507.732	0.985140
508.079	0.982897
508.426	0.980704
508.774	0.978484
509.121	0.976274
509.468	0.974072
509.815	0.971915
510.162	0.969670
510.509	0.967527
510.856	0.965447
511.203	0.963385
511.550	0.961293
511.897	0.959225
512.244	0.957362
512.591	0.955490
512.938	0.953515
513.284	0.951605
513.631	0.949624
513.978	0.947543
514.324	0.945560
514.671	0.943673
515.018	0.941710
515.364	0.939807
515.711	0.937943
516.057	0.935949
516.403	0.933982
516.750	0.932053
517.096	0.930179
517.443	0.928376
517.789	0.926641
518.135	0.924928
518.481	0.923044
518.827	0.921377
519.173	0.919645
519.519	0.917793
519.865	0.916127
520.211	0.914386
520.557	0.912560
520.903	0.910832
521.249	0.909142
521.595	0.907277
521.941	0.905292
522.287	0.903410
522.632	0.901457
522.978	0.899574
523.324	0.897744
523.669	0.896030
524.015	0.894242
524.360	0.892368
524.706	0.890524
525.051	0.888713
525.397	0.886812
525.742	0.885069
526.087	0.883403
526.433	0.881542
526.778	0.879921
527.123	0.878147
527.468	0.876351
527.813	0.874829
528.158	0.873042
528.504	0.871152
528.849	0.869194
529.193	0.867669
529.538	0.866036
529.883	0.864187
530.228	0.862175
530.573	0.860395
530.918	0.858461
531.263	0.856487
531.607	0.854654
531.952	0.852816
532.296	0.850953
532.641	0.849174
532.986	0.847142
533.330	0.845162
533.675	0.843395
534.019	0.841320
534.363	0.839353
534.708	0.837412
535.052	0.835406
535.396	0.833403
535.741	0.831613
536.085	0.829740
536.429	0.827623
536.773	0.825548
537.117	0.823561
537.461	0.821488
537.805	0.819183
538.149	0.816880
538.493	0.814744
538.837	0.812455
539.181	0.810077
539.524	0.807611
539.868	0.805196
540.212	0.802970
540.556	0.800614
540.899	0.798235
541.243	0.796014
541.586	0.793594
541.930	0.791138
542.273	0.788687
542.617	0.786253
542.960	0.783533
543.304	0.780844
543.647	0.778045
543.990	0.775295
544.333	0.772468
544.677	0.769722
545.020	0.767026
545.363	0.764293
545.706	0.761367
546.049	0.758659
546.392	0.755998
546.735	0.753374
547.078	0.750475
547.421	0.747500
547.764	0.744430
548.106	0.741320
548.449	0.738072
548.792	0.734921
549.135	0.731727
549.477	0.728429
549.820	0.725245
550.162	0.722108
550.505	0.718948
550.847	0.715758
551.190	0.712246
551.532	0.708668
551.875	0.704957
552.217	0.701194
552.559	0.697440
552.901	0.693849
553.244	0.690181
553.586	0.686618
553.928	0.683091
554.270	0.679712
554.612	0.676368
554.954	0.673021
555.296	0.669480
555.638	0.665912
555.980	0.662177
556.322	0.658168
556.663	0.654161
557.005	0.649948
557.347	0.645835
557.689	0.641722
558.030	0.637660
558.372	0.633653
558.713	0.629628
559.055	0.625675
559.396	0.621659
559.738	0.617527
560.079	0.613388
560.421	0.609357
560.762	0.605301
561.103	0.601285
561.444	0.597429
561.786	0.593483
562.127	0.589649
562.468	0.585761
562.809	0.581853
563.150	0.577715
563.491	0.573552
563.832	0.569235
564.173	0.564800
564.514	0.560201
564.855	0.555459
565.195	0.550693
565.536	0.545919
565.877	0.541207
566.218	0.536606
566.558	0.532089
566.899	0.527747
567.239	0.523589
567.580	0.519632
567.920	0.515997
568.261	0.512633
568.601	0.509379
568.941	0.506290
569.282	0.503286
569.622	0.500388
569.962	0.497413
570.302	0.494503
570.643	0.491727
570.983	0.489002
571.323	0.486373
571.663	0.483804
572.003	0.481255
572.343	0.478684
572.683	0.476023
573.022	0.473272
573.362	0.470372
573.702	0.467436
574.042	0.464574
574.381	0.461763
574.721	0.458997
575.061	0.456326
575.400	0.453774
575.740	0.451294
576.079	0.448845
576.419	0.446286
576.758	0.443625
577.097	0.440896
577.437	0.438077
577.776	0.435197
578.115	0.432358
578.454	0.429655
578.794	0.427188
579.133	0.424948
579.472	0.422871
579.811	0.420919
580.150	0.418967
580.489	0.416986
580.828	0.414895
581.167	0.412733
581.505	0.410537
581.844	0.408396
582.183	0.406222
582.522	0.404103
582.860	0.402041
583.199	0.400066
583.538	0.398187
583.876	0.396330
584.215	0.394488
584.553	0.392605
584.891	0.390706
585.230	0.388766
585.568	0.386763
585.906	0.384674
586.245	0.382628
586.583	0.380698
586.921	0.378953
587.259	0.377373
587.597	0.375860
587.935	0.374296
588.273	0.372589
588.611	0.370721
588.949	0.368721
589.287	0.366690
589.625	0.364612
589.963	0.362623
590.300	0.360682
590.638	0.358863
590.976	0.357090
591.313	0.355227
591.651	0.353403
591.989	0.351612
592.326	0.349909
592.664	0.348324
593.001	0.346840
593.338	0.345493
593.676	0.344247
594.013	0.342987
594.350	0.341767
594.687	0.340573
595.025	0.339469
595.362	0.338307
595.699	0.337108
596.036	0.335852
596.373	0.334595
596.710	0.333342
597.047	0.331998
597.384	0.330701
597.720	0.329392
598.057	0.328096
598.394	0.326832
598.731	0.325547
599.067	0.324285
599.404	0.323023
599.741	0.321852
600.077	0.320705
600.414	0.319614
600.750	0.318600
601.087	0.317636
601.423	0.316637
601.759	0.315646
602.096	0.314621
602.432	0.313660
