Date	2021年06月15日火曜日 04時28分11秒
Spectrometers	USB2+H05879
ダーク	使用
リファレンス	使用
積分時間[msec]	10
平均回数	280
ｽﾑｰｼﾞﾝｸﾞ	10
Electrical Dark	USE
ピクセル数	2048
計測モード	吸光度
保存開始波長[nm]	190.664
保存終了波長[nm]	884.878
保存ﾋﾟｯﾁ波長[nm]	全波長

>>>>>>>>>> Data Start <<<<<<<<<<<<
190.664	0.000000
191.040	0.000000
191.415	0.000000
191.791	-2.578799
192.166	-0.628340
192.542	-0.762557
192.917	0.000000
193.293	-0.603173
193.668	-0.217638
194.044	-1.045891
194.419	0.000000
194.794	-1.384477
195.170	-1.302554
195.545	-1.218909
195.920	-1.090003
196.296	-0.970005
196.671	-0.811189
197.046	-0.655479
197.421	-0.599042
197.796	-0.598417
198.171	-0.557664
198.546	-0.514730
198.922	-0.459097
199.297	-0.439067
199.672	-0.415524
200.047	-0.397960
200.422	-0.376814
200.796	-0.366253
201.171	-0.355787
201.546	-0.346649
201.921	-0.333354
202.296	-0.325318
202.671	-0.302128
203.045	-0.273443
203.420	-0.250306
203.795	-0.230624
204.170	-0.223099
204.544	-0.223004
204.919	-0.224413
205.294	-0.221057
205.668	-0.200564
206.043	-0.189537
206.417	-0.197385
206.792	-0.194602
207.166	-0.190456
207.541	-0.191909
207.915	-0.197919
208.289	-0.182373
208.664	-0.176617
209.038	-0.172259
209.412	-0.160479
209.787	-0.145379
210.161	-0.133546
210.535	-0.135895
210.909	-0.128842
211.284	-0.128518
211.658	-0.138641
212.032	-0.139822
212.406	-0.141698
212.780	-0.139623
213.154	-0.142141
213.528	-0.149194
213.902	-0.147991
214.276	-0.132855
214.650	-0.134892
215.024	-0.128373
215.398	-0.118507
215.772	-0.102382
216.145	-0.105132
216.519	-0.095125
216.893	-0.091677
217.267	-0.103647
217.640	-0.105170
218.014	-0.092106
218.388	-0.091610
218.761	-0.100285
219.135	-0.092588
219.508	-0.092653
219.882	-0.098638
220.256	-0.094601
220.629	-0.084808
221.003	-0.083149
221.376	-0.081206
221.749	-0.089171
222.123	-0.096512
222.496	-0.097681
222.869	-0.090341
223.243	-0.086896
223.616	-0.085791
223.989	-0.090149
224.362	-0.091364
224.736	-0.092164
225.109	-0.089325
225.482	-0.089054
225.855	-0.095337
226.228	-0.090847
226.601	-0.084919
226.974	-0.084909
227.347	-0.068308
227.720	-0.065565
228.093	-0.070591
228.466	-0.078582
228.839	-0.071567
229.212	-0.076322
229.585	-0.080165
229.957	-0.076079
230.330	-0.071280
230.703	-0.062577
231.076	-0.065795
231.448	-0.075708
231.821	-0.071415
232.194	-0.063330
232.566	-0.059641
232.939	-0.063305
233.311	-0.073880
233.684	-0.076463
234.056	-0.079601
234.429	-0.079114
234.801	-0.078049
235.174	-0.083927
235.546	-0.082429
235.918	-0.076151
236.291	-0.076394
236.663	-0.074580
237.035	-0.069018
237.408	-0.057367
237.780	-0.048426
238.152	-0.054411
238.524	-0.071330
238.896	-0.066616
239.268	-0.057526
239.641	-0.065368
240.013	-0.069817
240.385	-0.073192
240.757	-0.065343
241.129	-0.054160
241.500	-0.051868
241.872	-0.046808
242.244	-0.044845
242.616	-0.046023
242.988	-0.045594
243.360	-0.041644
243.731	-0.039512
244.103	-0.034590
244.475	-0.040384
244.847	-0.037065
245.218	-0.035716
245.590	-0.036879
245.961	-0.028735
246.333	-0.021658
246.705	-0.033120
247.076	-0.035486
247.448	-0.024527
247.819	-0.023296
248.190	-0.015283
248.562	-0.022147
248.933	-0.020819
249.305	-0.015993
249.676	-0.009978
250.047	-0.015994
250.418	-0.024209
250.790	-0.026358
251.161	-0.028762
251.532	-0.037364
251.903	-0.039419
252.274	-0.033575
252.645	-0.030346
253.016	-0.036905
253.387	-0.042882
253.758	-0.042950
254.129	-0.042195
254.500	-0.034544
254.871	-0.026134
255.242	-0.030155
255.613	-0.030692
255.984	-0.032968
256.355	-0.034107
256.725	-0.035629
257.096	-0.037228
257.467	-0.041752
257.838	-0.041664
258.208	-0.032025
258.579	-0.029618
258.949	-0.027786
259.320	-0.017998
259.690	-0.017681
260.061	-0.014774
260.431	-0.014924
260.802	-0.012143
261.172	-0.008967
261.543	-0.006453
261.913	-0.007079
262.283	-0.005555
262.654	-0.010653
263.024	-0.008450
263.394	-0.008439
263.764	-0.008662
264.135	-0.007238
264.505	-0.008504
264.875	-0.006284
265.245	-0.009119
265.615	-0.006752
265.985	-0.008838
266.355	-0.004829
266.725	-0.009101
267.095	-0.008527
267.465	-0.006943
267.835	-0.014963
268.205	-0.019194
268.575	-0.016943
268.944	-0.009947
269.314	-0.012705
269.684	-0.013391
270.054	-0.021226
270.423	-0.017836
270.793	-0.022858
271.163	-0.020445
271.532	-0.017612
271.902	-0.008037
272.271	-0.005438
272.641	-0.008166
273.010	-0.007683
273.380	-0.010694
273.749	-0.010475
274.119	-0.007136
274.488	0.008133
274.857	0.007189
275.227	0.005328
275.596	0.010015
275.965	0.015612
276.335	0.015493
276.704	0.006794
277.073	0.003419
277.442	0.006501
277.811	0.016866
278.180	0.015681
278.549	0.013077
278.918	0.010203
279.287	0.010443
279.656	0.011035
280.025	0.011262
280.394	0.012923
280.763	0.020534
281.132	0.026710
281.501	0.029417
281.869	0.021010
282.238	0.013871
282.607	0.012864
282.976	0.016537
283.344	0.022191
283.713	0.016581
284.081	0.013704
284.450	0.019026
284.819	0.027400
285.187	0.033454
285.556	0.029288
285.924	0.031297
286.292	0.037547
286.661	0.034216
287.029	0.033678
287.398	0.035397
287.766	0.031416
288.134	0.029513
288.502	0.027035
288.871	0.029556
289.239	0.034649
289.607	0.042154
289.975	0.045174
290.343	0.050475
290.711	0.052696
291.079	0.048900
291.447	0.054475
291.815	0.056919
292.183	0.058641
292.551	0.055493
292.919	0.054525
293.287	0.059920
293.655	0.063859
294.022	0.065101
294.390	0.073602
294.758	0.073614
295.126	0.066953
295.493	0.073524
295.861	0.076583
296.229	0.073822
296.596	0.079659
296.964	0.077510
297.331	0.078742
297.699	0.082510
298.066	0.084641
298.434	0.082203
298.801	0.084344
299.168	0.082665
299.536	0.087233
299.903	0.086137
300.270	0.091141
300.638	0.096295
301.005	0.103479
301.372	0.106391
301.739	0.110973
302.106	0.115526
302.473	0.125793
302.840	0.137159
303.207	0.155454
303.574	0.172717
303.941	0.188875
304.308	0.198015
304.675	0.208720
305.042	0.225792
305.409	0.237878
305.776	0.249565
306.143	0.272010
306.509	0.292739
306.876	0.319518
307.243	0.340082
307.610	0.366145
307.976	0.385213
308.343	0.404884
308.709	0.425230
309.076	0.455477
309.442	0.485263
309.809	0.506354
310.175	0.532565
310.542	0.560296
310.908	0.583355
311.275	0.602998
311.641	0.628043
312.007	0.650650
312.373	0.678914
312.740	0.702339
313.106	0.729216
313.472	0.758089
313.838	0.778809
314.204	0.799740
314.570	0.813048
314.936	0.834914
315.302	0.854224
315.668	0.874481
316.034	0.894459
316.400	0.918051
316.766	0.931928
317.132	0.946442
317.498	0.962249
317.864	0.973814
318.230	0.984205
318.595	0.993861
318.961	1.007152
319.327	1.019407
319.692	1.028479
320.058	1.034224
320.424	1.042820
320.789	1.049245
321.155	1.053127
321.520	1.060685
321.886	1.070904
322.251	1.078905
322.616	1.084086
322.982	1.088824
323.347	1.091794
323.712	1.098731
324.078	1.101414
324.443	1.102436
324.808	1.106225
325.173	1.110732
325.539	1.113468
325.904	1.116411
326.269	1.118287
326.634	1.120183
326.999	1.120938
327.364	1.122251
327.729	1.125197
328.094	1.125348
328.459	1.127185
328.823	1.129309
329.188	1.132132
329.553	1.130620
329.918	1.132451
330.283	1.133639
330.647	1.134886
331.012	1.137409
331.377	1.137196
331.741	1.137606
332.106	1.138796
332.470	1.138753
332.835	1.139028
333.199	1.139188
333.564	1.139693
333.928	1.140015
334.293	1.140473
334.657	1.140347
335.021	1.141107
335.386	1.140354
335.750	1.140958
336.114	1.140665
336.478	1.141379
336.843	1.140380
337.207	1.141248
337.571	1.141518
337.935	1.141939
338.299	1.141928
338.663	1.140593
339.027	1.140528
339.391	1.140253
339.755	1.140170
340.119	1.140460
340.483	1.140259
340.846	1.141132
341.210	1.141619
341.574	1.141735
341.938	1.141761
342.301	1.141805
342.665	1.142200
343.029	1.143588
343.392	1.144649
343.756	1.145126
344.119	1.145691
344.483	1.146842
344.846	1.147275
345.210	1.147944
345.573	1.148059
345.937	1.148312
346.300	1.149833
346.663	1.150242
347.027	1.151384
347.390	1.151975
347.753	1.152867
348.116	1.153729
348.479	1.154300
348.843	1.154606
349.206	1.155225
349.569	1.155736
349.932	1.157034
350.295	1.157830
350.658	1.157937
351.021	1.158315
351.383	1.159296
351.746	1.159600
352.109	1.159660
352.472	1.160171
352.835	1.161068
353.197	1.162371
353.560	1.163374
353.923	1.163651
354.285	1.164516
354.648	1.164815
355.011	1.165299
355.373	1.165931
355.736	1.166803
356.098	1.167293
356.461	1.168210
356.823	1.168813
357.185	1.169771
357.548	1.170246
357.910	1.170705
358.272	1.171229
358.635	1.171395
358.997	1.171550
359.359	1.172648
359.721	1.173294
360.083	1.174300
360.445	1.174705
360.807	1.175313
361.169	1.175960
361.531	1.176873
361.893	1.177523
362.255	1.178420
362.617	1.179654
362.979	1.180273
363.341	1.180428
363.703	1.181230
364.064	1.181953
364.426	1.182823
364.788	1.183576
365.149	1.184510
365.511	1.185182
365.873	1.185975
366.234	1.186717
366.596	1.187807
366.957	1.188239
367.319	1.188748
367.680	1.189002
368.042	1.189272
368.403	1.189290
368.764	1.190195
369.126	1.190476
369.487	1.190817
369.848	1.191269
370.209	1.191756
370.570	1.192220
370.931	1.193166
371.293	1.193335
371.654	1.193888
372.015	1.194790
372.376	1.195442
372.737	1.195897
373.098	1.196529
373.458	1.197350
373.819	1.198311
374.180	1.199092
374.541	1.199759
374.902	1.200626
375.263	1.201433
375.623	1.201932
375.984	1.203004
376.345	1.203239
376.705	1.204136
377.066	1.205237
377.426	1.205913
377.787	1.206253
378.147	1.206823
378.508	1.207185
378.868	1.208140
379.228	1.208317
379.589	1.208307
379.949	1.208469
380.309	1.208953
380.670	1.209247
381.030	1.209084
381.390	1.209702
381.750	1.209339
382.110	1.209380
382.470	1.209617
382.830	1.209872
383.190	1.210671
383.550	1.210685
383.910	1.211090
384.270	1.211281
384.630	1.211427
384.990	1.211692
385.350	1.212039
385.709	1.212034
386.069	1.212212
386.429	1.211980
386.788	1.212248
387.148	1.212710
387.508	1.212761
387.867	1.212723
388.227	1.212789
388.586	1.213094
388.946	1.212657
389.305	1.213085
389.665	1.213342
390.024	1.213264
390.383	1.213253
390.743	1.212924
391.102	1.212754
391.461	1.212189
391.820	1.211953
392.179	1.211261
392.539	1.210920
392.898	1.210636
393.257	1.210541
393.616	1.210565
393.975	1.210366
394.334	1.209917
394.693	1.209544
395.051	1.209307
395.410	1.208851
395.769	1.208795
396.128	1.208565
396.487	1.208035
396.845	1.207385
397.204	1.206396
397.563	1.205863
397.921	1.205127
398.280	1.204268
398.638	1.203289
398.997	1.202629
399.355	1.201759
399.714	1.201012
400.072	1.199776
400.431	1.198731
400.789	1.197370
401.147	1.196032
401.506	1.194660
401.864	1.193892
402.222	1.192328
402.580	1.190838
402.938	1.189708
403.297	1.188043
403.655	1.186110
404.013	1.184659
404.371	1.183263
404.729	1.181909
405.087	1.180375
405.444	1.179256
405.802	1.177849
406.160	1.176428
406.518	1.175226
406.876	1.173688
407.233	1.172318
407.591	1.170972
407.949	1.169437
408.306	1.168154
408.664	1.166695
409.022	1.165535
409.379	1.163646
409.737	1.162195
410.094	1.160508
410.451	1.158799
410.809	1.157137
411.166	1.155508
411.523	1.153923
411.881	1.152128
412.238	1.150574
412.595	1.148578
412.952	1.146730
413.310	1.144983
413.667	1.143511
414.024	1.141603
414.381	1.139743
414.738	1.137612
415.095	1.135486
415.452	1.133698
415.809	1.131660
416.165	1.129725
416.522	1.127466
416.879	1.125188
417.236	1.122534
417.593	1.120295
417.949	1.118110
418.306	1.115870
418.663	1.114358
419.019	1.112124
419.376	1.110023
419.732	1.107628
420.089	1.105991
420.445	1.103763
420.802	1.101962
421.158	1.099805
421.514	1.097793
421.871	1.095887
422.227	1.093851
422.583	1.091973
422.939	1.089693
423.295	1.087606
423.652	1.085407
424.008	1.083207
424.364	1.081145
424.720	1.079382
425.076	1.077244
425.432	1.074694
425.788	1.072387
426.143	1.069586
426.499	1.067202
426.855	1.064962
427.211	1.062737
427.567	1.060195
427.922	1.057893
428.278	1.054705
428.634	1.052316
428.989	1.049727
429.345	1.047215
429.700	1.044796
430.056	1.042439
430.411	1.040171
430.767	1.037661
431.122	1.035151
431.478	1.032714
431.833	1.030179
432.188	1.027324
432.543	1.024696
432.899	1.021891
433.254	1.019060
433.609	1.016241
433.964	1.013290
434.319	1.010103
434.674	1.006896
435.029	1.003866
435.384	1.000783
435.739	0.998081
436.094	0.995445
436.449	0.992874
436.804	0.989887
437.158	0.987135
437.513	0.984072
437.868	0.980964
438.223	0.978006
438.577	0.974942
438.932	0.972208
439.287	0.969311
439.641	0.966570
439.996	0.963647
440.350	0.960970
440.704	0.958323
441.059	0.955542
441.413	0.952556
441.768	0.949563
442.122	0.946997
442.476	0.944168
442.830	0.941402
443.185	0.938838
443.539	0.935980
443.893	0.933076
444.247	0.930379
444.601	0.927605
444.955	0.924855
445.309	0.922024
445.663	0.919159
446.017	0.916318
446.371	0.913142
446.724	0.910021
447.078	0.907154
447.432	0.904131
447.786	0.901148
448.139	0.897865
448.493	0.894914
448.847	0.892095
449.200	0.889157
449.554	0.885978
449.907	0.883084
450.261	0.880044
450.614	0.876897
450.968	0.873851
451.321	0.870812
451.674	0.867766
452.027	0.864599
452.381	0.861597
452.734	0.858587
453.087	0.855482
453.440	0.852359
453.793	0.849350
454.146	0.846501
454.499	0.843363
454.852	0.840254
455.205	0.837295
455.558	0.834594
455.911	0.831729
456.264	0.828889
456.617	0.826184
456.970	0.823621
457.322	0.820937
457.675	0.818477
458.028	0.816119
458.380	0.813742
458.733	0.811360
459.086	0.808988
459.438	0.806630
459.791	0.804172
460.143	0.801725
460.496	0.799309
460.848	0.796912
461.200	0.794405
461.553	0.791752
461.905	0.789381
462.257	0.787102
462.609	0.784824
462.961	0.782586
463.314	0.780334
463.666	0.778063
464.018	0.775733
464.370	0.773567
464.722	0.771417
465.074	0.769090
465.426	0.767005
465.777	0.764981
466.129	0.763008
466.481	0.761112
466.833	0.759299
467.184	0.757289
467.536	0.755125
467.888	0.753118
468.239	0.750892
468.591	0.748621
468.943	0.746293
469.294	0.743942
469.646	0.741572
469.997	0.739156
470.348	0.736715
470.700	0.734456
471.051	0.732219
471.402	0.730127
471.754	0.728013
472.105	0.726025
472.456	0.724120
472.807	0.722243
473.158	0.720305
473.509	0.718460
473.860	0.716603
474.211	0.714752
474.562	0.713205
474.913	0.711605
475.264	0.709901
475.615	0.708255
475.966	0.706669
476.316	0.704990
476.667	0.703264
477.018	0.701567
477.368	0.699871
477.719	0.698098
478.070	0.696421
478.420	0.694796
478.771	0.693115
479.121	0.691541
479.472	0.689874
479.822	0.688196
480.172	0.686557
480.523	0.684828
480.873	0.682795
481.223	0.680481
481.573	0.678275
481.924	0.676018
482.274	0.673838
482.624	0.671859
482.974	0.670100
483.324	0.668696
483.674	0.667578
484.024	0.666419
484.374	0.665343
484.724	0.664299
485.073	0.663261
485.423	0.662243
485.773	0.661172
486.123	0.660168
486.472	0.659003
486.822	0.657930
487.172	0.656893
487.521	0.655774
487.871	0.654693
488.220	0.653673
488.570	0.652633
488.919	0.651237
489.268	0.649617
489.618	0.647872
489.967	0.645914
490.316	0.643694
490.666	0.641208
491.015	0.638724
491.364	0.636561
491.713	0.634563
492.062	0.632619
492.411	0.630863
492.760	0.629085
493.109	0.627341
493.458	0.625631
493.807	0.624028
494.156	0.622379
494.505	0.620623
494.853	0.618929
495.202	0.617192
495.551	0.615452
495.900	0.613739
496.248	0.612058
496.597	0.610320
496.945	0.608645
497.294	0.606983
497.642	0.605333
497.991	0.603649
498.339	0.602044
498.688	0.600457
499.036	0.598860
499.384	0.597299
499.732	0.595731
500.081	0.594098
500.429	0.592545
500.777	0.590927
501.125	0.589449
501.473	0.587886
501.821	0.586473
502.169	0.585008
502.517	0.583598
502.865	0.582170
503.213	0.580738
503.561	0.579319
503.908	0.577936
504.256	0.576536
504.604	0.575054
504.952	0.573638
505.299	0.572212
505.647	0.570764
505.994	0.569248
506.342	0.567721
506.689	0.566323
507.037	0.564906
507.384	0.563493
507.732	0.562065
508.079	0.560731
508.426	0.559262
508.774	0.557871
509.121	0.556553
509.468	0.555244
509.815	0.553916
510.162	0.552624
510.509	0.551338
510.856	0.550006
511.203	0.548796
511.550	0.547543
511.897	0.546314
512.244	0.545108
512.591	0.543792
512.938	0.542550
513.284	0.541377
513.631	0.540189
513.978	0.538875
514.324	0.537596
514.671	0.536325
515.018	0.535058
515.364	0.533845
515.711	0.532715
516.057	0.531485
516.403	0.530177
516.750	0.528952
517.096	0.527730
517.443	0.526570
517.789	0.525334
518.135	0.524215
518.481	0.522937
518.827	0.521775
519.173	0.520617
519.519	0.519318
519.865	0.518224
520.211	0.517036
520.557	0.515768
520.903	0.514588
521.249	0.513431
521.595	0.512208
521.941	0.510953
522.287	0.509728
522.632	0.508335
522.978	0.507010
523.324	0.505791
523.669	0.504567
524.015	0.503187
524.360	0.501860
524.706	0.500561
525.051	0.499291
525.397	0.497961
525.742	0.496809
526.087	0.495505
526.433	0.494275
526.778	0.493175
527.123	0.491951
527.468	0.490746
527.813	0.489574
528.158	0.488327
528.504	0.487081
528.849	0.485751
529.193	0.484600
529.538	0.483321
529.883	0.481981
530.228	0.480572
530.573	0.479221
530.918	0.477826
531.263	0.476586
531.607	0.475325
531.952	0.473992
532.296	0.472679
532.641	0.471444
532.986	0.470023
533.330	0.468689
533.675	0.467375
534.019	0.465900
534.363	0.464521
534.708	0.463106
535.052	0.461791
535.396	0.460493
535.741	0.459191
536.085	0.457861
536.429	0.456426
536.773	0.454996
537.117	0.453600
537.461	0.452099
537.805	0.450507
538.149	0.448940
538.493	0.447278
538.837	0.445697
539.181	0.444050
539.524	0.442419
539.868	0.440728
540.212	0.439144
540.556	0.437524
540.899	0.435879
541.243	0.434322
541.586	0.432673
541.930	0.431095
542.273	0.429380
542.617	0.427587
542.960	0.425748
543.304	0.423937
543.647	0.422084
543.990	0.420265
544.333	0.418438
544.677	0.416722
545.020	0.415002
545.363	0.413189
545.706	0.411481
546.049	0.409673
546.392	0.407928
546.735	0.406115
547.078	0.404341
547.421	0.402512
547.764	0.400630
548.106	0.398632
548.449	0.396587
548.792	0.394614
549.135	0.392538
549.477	0.390570
549.820	0.388746
550.162	0.386861
550.505	0.384957
550.847	0.383018
551.190	0.380936
551.532	0.378826
551.875	0.376545
552.217	0.374217
552.559	0.372069
552.901	0.369878
553.244	0.367761
553.586	0.365669
553.928	0.363718
554.270	0.361713
554.612	0.359746
554.954	0.357850
555.296	0.355892
555.638	0.353934
555.980	0.351740
556.322	0.349540
556.663	0.347224
557.005	0.344758
557.347	0.342459
557.689	0.340174
558.030	0.337952
558.372	0.335767
558.713	0.333507
559.055	0.331362
559.396	0.329239
559.738	0.326904
560.079	0.324616
560.421	0.322368
560.762	0.320193
561.103	0.317947
561.444	0.315854
561.786	0.313767
562.127	0.311614
562.468	0.309484
562.809	0.307284
563.150	0.305009
563.491	0.302677
563.832	0.300365
564.173	0.297961
564.514	0.295408
564.855	0.292787
565.195	0.290122
565.536	0.287456
565.877	0.284839
566.218	0.282249
566.558	0.279729
566.899	0.277383
567.239	0.275164
567.580	0.273152
567.920	0.271294
568.261	0.269618
568.601	0.267989
568.941	0.266472
569.282	0.265029
569.622	0.263605
569.962	0.262180
570.302	0.260814
570.643	0.259504
570.983	0.258253
571.323	0.257082
571.663	0.255924
572.003	0.254782
572.343	0.253630
572.683	0.252378
573.022	0.251056
573.362	0.249694
573.702	0.248349
574.042	0.247067
574.381	0.245796
574.721	0.244542
575.061	0.243342
575.400	0.242225
575.740	0.241104
576.079	0.239987
576.419	0.238776
576.758	0.237506
577.097	0.236187
577.437	0.234819
577.776	0.233385
578.115	0.231974
578.454	0.230647
578.794	0.229492
579.133	0.228477
579.472	0.227540
579.811	0.226685
580.150	0.225832
580.489	0.224958
580.828	0.224003
581.167	0.223011
581.505	0.222017
581.844	0.221040
582.183	0.220003
582.522	0.219005
582.860	0.218036
583.199	0.217095
583.538	0.216236
583.876	0.215411
584.215	0.214606
584.553	0.213813
584.891	0.213051
585.230	0.212260
585.568	0.211387
585.906	0.210447
586.245	0.209485
586.583	0.208549
586.921	0.207696
587.259	0.206984
587.597	0.206283
587.935	0.205545
588.273	0.204696
588.611	0.203757
588.949	0.202727
589.287	0.201759
589.625	0.200709
589.963	0.199760
590.300	0.198859
590.638	0.198022
590.976	0.197211
591.313	0.196359
591.651	0.195495
591.989	0.194639
592.326	0.193836
592.664	0.193130
593.001	0.192420
593.338	0.191781
593.676	0.191185
594.013	0.190613
594.350	0.190044
594.687	0.189519
595.025	0.189081
595.362	0.188612
595.699	0.188109
596.036	0.187581
596.373	0.187054
596.710	0.186505
597.047	0.185902
597.384	0.185316
597.720	0.184721
598.057	0.184129
598.394	0.183544
598.731	0.182940
599.067	0.182351
599.404	0.181733
599.741	0.181118
600.077	0.180595
600.414	0.180081
600.750	0.179650
601.087	0.179249
