Date	2021年06月15日火曜日 04時35分52秒
Spectrometers	USB2+H05879
ダーク	使用
リファレンス	使用
積分時間[msec]	10
平均回数	280
ｽﾑｰｼﾞﾝｸﾞ	10
Electrical Dark	USE
ピクセル数	2048
計測モード	吸光度
保存開始波長[nm]	190.664
保存終了波長[nm]	884.878
保存ﾋﾟｯﾁ波長[nm]	全波長

>>>>>>>>>> Data Start <<<<<<<<<<<<
190.664	0.000000
191.040	0.000000
191.415	0.000000
191.791	-2.478822
192.166	-0.629441
192.542	-0.656609
192.917	0.000000
193.293	-0.489626
193.668	-0.488245
194.044	-1.117509
194.419	0.000000
194.794	-1.410743
195.170	-1.315311
195.545	-1.216170
195.920	-1.084449
196.296	-0.964319
196.671	-0.809932
197.046	-0.661480
197.421	-0.609448
197.796	-0.602524
198.171	-0.566843
198.546	-0.520580
198.922	-0.474329
199.297	-0.451015
199.672	-0.425143
200.047	-0.407488
200.422	-0.374492
200.796	-0.365512
201.171	-0.339455
201.546	-0.331490
201.921	-0.324649
202.296	-0.320121
202.671	-0.296277
203.045	-0.274756
203.420	-0.264366
203.795	-0.255019
204.170	-0.252721
204.544	-0.249980
204.919	-0.249170
205.294	-0.244404
205.668	-0.231680
206.043	-0.219828
206.417	-0.228375
206.792	-0.216618
207.166	-0.210927
207.541	-0.205322
207.915	-0.208304
208.289	-0.197878
208.664	-0.196413
209.038	-0.195645
209.412	-0.181740
209.787	-0.168525
210.161	-0.151126
210.535	-0.151504
210.909	-0.141354
211.284	-0.138688
211.658	-0.137859
212.032	-0.130874
212.406	-0.138071
212.780	-0.135135
213.154	-0.141986
213.528	-0.144576
213.902	-0.141713
214.276	-0.128434
214.650	-0.130828
215.024	-0.123978
215.398	-0.124556
215.772	-0.116410
216.145	-0.121427
216.519	-0.116309
216.893	-0.114796
217.267	-0.125926
217.640	-0.122559
218.014	-0.113566
218.388	-0.107099
218.761	-0.111733
219.135	-0.096610
219.508	-0.101859
219.882	-0.109418
220.256	-0.108204
220.629	-0.103724
221.003	-0.098536
221.376	-0.096360
221.749	-0.097545
222.123	-0.102017
222.496	-0.103526
222.869	-0.104155
223.243	-0.096053
223.616	-0.092635
223.989	-0.094714
224.362	-0.094889
224.736	-0.099414
225.109	-0.094352
225.482	-0.101485
225.855	-0.106540
226.228	-0.108162
226.601	-0.108121
226.974	-0.111825
227.347	-0.101960
227.720	-0.102770
228.093	-0.102545
228.466	-0.113318
228.839	-0.111591
229.212	-0.113435
229.585	-0.124710
229.957	-0.120706
230.330	-0.116205
230.703	-0.109688
231.076	-0.110417
231.448	-0.113066
231.821	-0.111925
232.194	-0.108622
232.566	-0.110227
232.939	-0.117594
233.311	-0.121746
233.684	-0.118869
234.056	-0.119848
234.429	-0.118899
234.801	-0.118108
235.174	-0.109912
235.546	-0.103024
235.918	-0.098914
236.291	-0.091761
236.663	-0.084284
237.035	-0.081511
237.408	-0.067335
237.780	-0.059032
238.152	-0.060204
238.524	-0.073123
238.896	-0.072188
239.268	-0.074476
239.641	-0.075363
240.013	-0.069880
240.385	-0.061629
240.757	-0.056813
241.129	-0.050449
241.500	-0.050594
241.872	-0.044844
242.244	-0.044457
242.616	-0.044155
242.988	-0.048251
243.360	-0.042060
243.731	-0.037997
244.103	-0.040027
244.475	-0.045364
244.847	-0.040090
245.218	-0.038484
245.590	-0.042059
245.961	-0.037008
246.333	-0.027941
246.705	-0.034008
247.076	-0.027859
247.448	-0.021882
247.819	-0.023239
248.190	-0.016797
248.562	-0.017362
248.933	-0.016475
249.305	-0.014937
249.676	-0.012209
250.047	-0.013557
250.418	-0.018938
250.790	-0.020121
251.161	-0.024707
251.532	-0.026217
251.903	-0.025073
252.274	-0.018814
252.645	-0.015335
253.016	-0.018298
253.387	-0.020379
253.758	-0.024641
254.129	-0.028284
254.500	-0.025793
254.871	-0.025008
255.242	-0.024583
255.613	-0.025709
255.984	-0.033371
256.355	-0.033315
256.725	-0.030581
257.096	-0.028966
257.467	-0.034410
257.838	-0.033113
258.208	-0.033953
258.579	-0.032229
258.949	-0.037378
259.320	-0.034238
259.690	-0.032365
260.061	-0.030468
260.431	-0.032299
260.802	-0.034812
261.172	-0.035327
261.543	-0.032194
261.913	-0.031262
262.283	-0.031544
262.654	-0.031121
263.024	-0.032189
263.394	-0.028477
263.764	-0.025823
264.135	-0.018524
264.505	-0.019482
264.875	-0.021763
265.245	-0.023413
265.615	-0.022498
265.985	-0.015062
266.355	-0.010808
266.725	-0.009031
267.095	-0.002952
267.465	0.004072
267.835	-0.000436
268.205	-0.006951
268.575	-0.003934
268.944	0.002363
269.314	-0.001379
269.684	0.003818
270.054	-0.004620
270.423	-0.001699
270.793	-0.003277
271.163	-0.005229
271.532	-0.003478
271.902	-0.008639
272.271	-0.006825
272.641	-0.004782
273.010	-0.005304
273.380	-0.008178
273.749	-0.006405
274.119	-0.004728
274.488	0.007883
274.857	0.002228
275.227	-0.001328
275.596	-0.001516
275.965	0.007449
276.335	0.008475
276.704	0.000503
277.073	0.000185
277.442	-0.000499
277.811	0.008307
278.180	0.008169
278.549	0.011692
278.918	0.008248
279.287	0.004778
279.656	0.012970
280.025	0.013678
280.394	0.011563
280.763	0.015851
281.132	0.019606
281.501	0.019751
281.869	0.012582
282.238	0.007883
282.607	0.005572
282.976	0.012113
283.344	0.017396
283.713	0.015671
284.081	0.013928
284.450	0.018621
284.819	0.019695
285.187	0.022173
285.556	0.025914
285.924	0.021841
286.292	0.020803
286.661	0.021993
287.029	0.024161
287.398	0.024156
287.766	0.021098
288.134	0.020060
288.502	0.024385
288.871	0.027249
289.239	0.027595
289.607	0.030302
289.975	0.027707
290.343	0.030965
290.711	0.024290
291.079	0.020491
291.447	0.024010
291.815	0.029996
292.183	0.033371
292.551	0.038421
292.919	0.040107
293.287	0.048243
293.655	0.054285
294.022	0.057058
294.390	0.059934
294.758	0.060910
295.126	0.056979
295.493	0.061365
295.861	0.068564
296.229	0.066068
296.596	0.067080
296.964	0.065936
297.331	0.068750
297.699	0.073355
298.066	0.077519
298.434	0.080633
298.801	0.081028
299.168	0.075623
299.536	0.080142
299.903	0.078711
300.270	0.076367
300.638	0.081840
301.005	0.084250
301.372	0.085106
301.739	0.090438
302.106	0.092992
302.473	0.102687
302.840	0.110680
303.207	0.125140
303.574	0.139700
303.941	0.151658
304.308	0.157427
304.675	0.169443
305.042	0.185612
305.409	0.203824
305.776	0.217223
306.143	0.235651
306.509	0.255204
306.876	0.280650
307.243	0.298498
307.610	0.323404
307.976	0.346999
308.343	0.366661
308.709	0.390462
309.076	0.416995
309.442	0.439139
309.809	0.464812
310.175	0.490846
310.542	0.512334
310.908	0.530235
311.275	0.550596
311.641	0.574889
312.007	0.602422
312.373	0.625353
312.740	0.644273
313.106	0.664315
313.472	0.687514
313.838	0.706907
314.204	0.724813
314.570	0.737894
314.936	0.752871
315.302	0.766544
315.668	0.781785
316.034	0.801533
316.400	0.816827
316.766	0.828822
317.132	0.843533
317.498	0.855226
317.864	0.861658
318.230	0.871314
318.595	0.881493
318.961	0.888088
319.327	0.896374
319.692	0.901392
320.058	0.906886
320.424	0.914269
320.789	0.918127
321.155	0.924376
321.520	0.930993
321.886	0.939428
322.251	0.945689
322.616	0.949934
322.982	0.954012
323.347	0.956051
323.712	0.957852
324.078	0.958941
324.443	0.960652
324.808	0.961372
325.173	0.963465
325.539	0.964923
325.904	0.966409
326.269	0.967217
326.634	0.967877
326.999	0.968127
327.364	0.969614
327.729	0.970497
328.094	0.970643
328.459	0.971856
328.823	0.971567
329.188	0.971568
329.553	0.970193
329.918	0.970694
330.283	0.970329
330.647	0.970674
331.012	0.971418
331.377	0.970593
331.741	0.969697
332.106	0.969998
332.470	0.969637
332.835	0.969278
333.199	0.969644
333.564	0.970051
333.928	0.970139
334.293	0.970493
334.657	0.969688
335.021	0.969650
335.386	0.968985
335.750	0.968033
336.114	0.967419
336.478	0.966834
336.843	0.966027
337.207	0.966059
337.571	0.965934
337.935	0.966140
338.299	0.965714
338.663	0.964994
339.027	0.965420
339.391	0.965559
339.755	0.965357
340.119	0.965209
340.483	0.965151
340.846	0.964912
341.210	0.964838
341.574	0.964879
341.938	0.964712
342.301	0.965349
342.665	0.965455
343.029	0.965764
343.392	0.966344
343.756	0.966101
344.119	0.966389
344.483	0.966750
344.846	0.966723
345.210	0.966861
345.573	0.966569
345.937	0.966477
346.300	0.966789
346.663	0.966335
347.027	0.966608
347.390	0.966613
347.753	0.966561
348.116	0.966372
348.479	0.967014
348.843	0.966994
349.206	0.966808
349.569	0.966817
349.932	0.966840
350.295	0.966699
350.658	0.966701
351.021	0.966966
351.383	0.967419
351.746	0.967312
352.109	0.967441
352.472	0.967424
352.835	0.967222
353.197	0.967757
353.560	0.968168
353.923	0.967845
354.285	0.967950
354.648	0.967977
355.011	0.968074
355.373	0.968480
355.736	0.968973
356.098	0.968652
356.461	0.968591
356.823	0.968677
357.185	0.969064
357.548	0.968970
357.910	0.969071
358.272	0.969038
358.635	0.968624
358.997	0.968591
359.359	0.968948
359.721	0.968933
360.083	0.969000
360.445	0.969047
360.807	0.968707
361.169	0.968634
361.531	0.969053
361.893	0.969153
362.255	0.968961
362.617	0.968812
362.979	0.968805
363.341	0.968359
363.703	0.968190
364.064	0.968240
364.426	0.968226
364.788	0.967927
365.149	0.967818
365.511	0.967857
365.873	0.968009
366.234	0.968029
366.596	0.968022
366.957	0.967656
367.319	0.967715
367.680	0.967645
368.042	0.967368
368.403	0.967397
368.764	0.967335
369.126	0.967186
369.487	0.967126
369.848	0.967031
370.209	0.967079
370.570	0.967021
370.931	0.967103
371.293	0.966788
371.654	0.966560
372.015	0.966774
372.376	0.966636
372.737	0.966643
373.098	0.966175
373.458	0.965731
373.819	0.965974
374.180	0.965987
374.541	0.966042
374.902	0.965767
375.263	0.965705
375.623	0.965770
375.984	0.965821
376.345	0.965707
376.705	0.965730
377.066	0.965762
377.426	0.965561
377.787	0.965513
378.147	0.965402
378.508	0.965411
378.868	0.965764
379.228	0.965614
379.589	0.965004
379.949	0.964936
380.309	0.964767
380.670	0.964787
381.030	0.964783
381.390	0.964798
381.750	0.964234
382.110	0.963935
382.470	0.963734
382.830	0.963539
383.190	0.963236
383.550	0.962839
383.910	0.962495
384.270	0.962045
384.630	0.961578
384.990	0.961488
385.350	0.961228
385.709	0.960815
386.069	0.960428
386.429	0.959870
386.788	0.959380
387.148	0.959318
387.508	0.958779
387.867	0.958303
388.227	0.957790
388.586	0.957245
388.946	0.956560
389.305	0.956192
389.665	0.955636
390.024	0.955110
390.383	0.954760
390.743	0.954290
391.102	0.953840
391.461	0.953250
391.820	0.952694
392.179	0.951875
392.539	0.950929
392.898	0.950228
393.257	0.949433
393.616	0.948845
393.975	0.948139
394.334	0.947628
394.693	0.946897
395.051	0.946327
395.410	0.945594
395.769	0.944998
396.128	0.944370
396.487	0.943497
396.845	0.942514
397.204	0.941697
397.563	0.940624
397.921	0.939262
398.280	0.938077
398.638	0.936816
398.997	0.935718
399.355	0.934457
399.714	0.933521
400.072	0.932582
400.431	0.931072
400.789	0.929825
401.147	0.928448
401.506	0.927123
401.864	0.925814
402.222	0.924299
402.580	0.922673
402.938	0.921279
403.297	0.919590
403.655	0.918132
404.013	0.916649
404.371	0.915378
404.729	0.913856
405.087	0.912639
405.444	0.911413
405.802	0.909917
406.160	0.908634
406.518	0.906965
406.876	0.905487
407.233	0.904046
407.591	0.902702
407.949	0.901506
408.306	0.899951
408.664	0.898369
409.022	0.896765
409.379	0.895040
409.737	0.893478
410.094	0.891971
410.451	0.890318
410.809	0.888880
411.166	0.887282
411.523	0.885700
411.881	0.884099
412.238	0.882562
412.595	0.880745
412.952	0.878974
413.310	0.877499
413.667	0.875899
414.024	0.874513
414.381	0.872854
414.738	0.871208
415.095	0.869285
415.452	0.867583
415.809	0.865852
416.165	0.864097
416.522	0.862271
416.879	0.860478
417.236	0.858590
417.593	0.856624
417.949	0.854795
418.306	0.853051
418.663	0.851317
419.019	0.849443
419.376	0.847627
419.732	0.845797
420.089	0.844102
420.445	0.842417
420.802	0.840596
421.158	0.838749
421.514	0.836965
421.871	0.835274
422.227	0.833542
422.583	0.831859
422.939	0.829872
423.295	0.828081
423.652	0.826222
424.008	0.824341
424.364	0.822609
424.720	0.820697
425.076	0.818900
425.432	0.816820
425.788	0.814674
426.143	0.812375
426.499	0.810261
426.855	0.808160
427.211	0.806129
427.567	0.804174
427.922	0.802254
428.278	0.800219
428.634	0.798411
428.989	0.796514
429.345	0.794598
429.700	0.792634
430.056	0.790688
430.411	0.789020
430.767	0.787235
431.122	0.785328
431.478	0.783411
431.833	0.781258
432.188	0.779236
432.543	0.777146
432.899	0.775078
433.254	0.772856
433.609	0.770753
433.964	0.768594
434.319	0.766339
434.674	0.763981
435.029	0.761712
435.384	0.759457
435.739	0.757333
436.094	0.755150
436.449	0.753066
436.804	0.750996
437.158	0.748754
437.513	0.746627
437.868	0.744297
438.223	0.742008
438.577	0.739776
438.932	0.737724
439.287	0.735708
439.641	0.733669
439.996	0.731524
440.350	0.729581
440.704	0.727689
441.059	0.725755
441.413	0.723643
441.768	0.721569
442.122	0.719674
442.476	0.717543
442.830	0.715651
443.185	0.713686
443.539	0.711752
443.893	0.709735
444.247	0.707816
444.601	0.705970
444.955	0.703949
445.309	0.701954
445.663	0.699869
446.017	0.697819
446.371	0.695682
446.724	0.693504
447.078	0.691388
447.432	0.689408
447.786	0.687249
448.139	0.685033
448.493	0.682825
448.847	0.680753
449.200	0.678603
449.554	0.676434
449.907	0.674507
450.261	0.672238
450.614	0.670119
450.968	0.667986
451.321	0.665897
451.674	0.663727
452.027	0.661520
452.381	0.659411
452.734	0.657265
453.087	0.655183
453.440	0.652913
453.793	0.650771
454.146	0.648691
454.499	0.646598
454.852	0.644401
455.205	0.642307
455.558	0.640338
455.911	0.638431
456.264	0.636498
456.617	0.634642
456.970	0.632769
457.322	0.630903
457.675	0.629156
458.028	0.627492
458.380	0.625781
458.733	0.624049
459.086	0.622369
459.438	0.620727
459.791	0.618977
460.143	0.617247
460.496	0.615534
460.848	0.613902
461.200	0.612189
461.553	0.610380
461.905	0.608665
462.257	0.607014
462.609	0.605366
462.961	0.603719
463.314	0.602187
463.666	0.600625
464.018	0.599048
464.370	0.597673
464.722	0.596190
465.074	0.594715
465.426	0.593175
465.777	0.591808
466.129	0.590428
466.481	0.589073
466.833	0.587692
467.184	0.586403
467.536	0.584938
467.888	0.583478
468.239	0.581991
468.591	0.580366
468.943	0.578747
469.294	0.577159
469.646	0.575410
469.997	0.573657
470.348	0.571988
470.700	0.570290
471.051	0.568619
471.402	0.567026
471.754	0.565330
472.105	0.563790
472.456	0.562315
472.807	0.560994
473.158	0.559623
473.509	0.558266
473.860	0.556954
474.211	0.555683
474.562	0.554366
474.913	0.553109
475.264	0.551899
475.615	0.550644
475.966	0.549419
476.316	0.548123
476.667	0.546785
477.018	0.545598
477.368	0.544365
477.719	0.543091
478.070	0.541818
478.420	0.540645
478.771	0.539364
479.121	0.538218
479.472	0.537048
479.822	0.535790
480.172	0.534588
480.523	0.533287
480.873	0.531778
481.223	0.529935
481.573	0.528007
481.924	0.526154
482.274	0.524382
482.624	0.522728
482.974	0.521429
483.324	0.520478
483.674	0.519753
484.024	0.519019
484.374	0.518290
484.724	0.517635
485.073	0.516897
485.423	0.516186
485.773	0.515392
486.123	0.514675
486.472	0.513846
486.822	0.513032
487.172	0.512290
487.521	0.511467
487.871	0.510669
488.220	0.509951
488.570	0.509245
488.919	0.508415
489.268	0.507439
489.618	0.506364
489.967	0.505128
490.316	0.503585
490.666	0.501779
491.015	0.499973
491.364	0.498274
491.713	0.496633
492.062	0.495091
492.411	0.493723
492.760	0.492378
493.109	0.491074
493.458	0.489777
493.807	0.488582
494.156	0.487319
494.505	0.486025
494.853	0.484716
495.202	0.483418
495.551	0.482074
495.900	0.480779
496.248	0.479516
496.597	0.478176
496.945	0.476973
497.294	0.475806
497.642	0.474621
497.991	0.473350
498.339	0.472034
498.688	0.470870
499.036	0.469786
499.384	0.468626
499.732	0.467478
500.081	0.466311
500.429	0.465178
500.777	0.464072
501.125	0.462967
501.473	0.461830
501.821	0.460693
502.169	0.459581
502.517	0.458514
502.865	0.457486
503.213	0.456363
503.561	0.455353
503.908	0.454395
504.256	0.453327
504.604	0.452260
504.952	0.451187
505.299	0.450143
505.647	0.449097
505.994	0.447981
506.342	0.446860
506.689	0.445739
507.037	0.444645
507.384	0.443525
507.732	0.442476
508.079	0.441487
508.426	0.440411
508.774	0.439443
509.121	0.438449
509.468	0.437567
509.815	0.436610
510.162	0.435660
510.509	0.434764
510.856	0.433774
511.203	0.432788
511.550	0.431810
511.897	0.430851
512.244	0.429910
512.591	0.428969
512.938	0.428028
513.284	0.427013
513.631	0.426012
513.978	0.425026
514.324	0.424047
514.671	0.423095
515.018	0.422060
515.364	0.420991
515.711	0.420016
516.057	0.418945
516.403	0.417993
516.750	0.416960
517.096	0.415981
517.443	0.415050
517.789	0.414192
518.135	0.413244
518.481	0.412356
518.827	0.411438
519.173	0.410460
519.519	0.409454
519.865	0.408495
520.211	0.407566
520.557	0.406682
520.903	0.405753
521.249	0.404858
521.595	0.403845
521.941	0.402890
522.287	0.401921
522.632	0.400885
522.978	0.399891
523.324	0.398987
523.669	0.398043
524.015	0.397041
524.360	0.395957
524.706	0.394935
525.051	0.393791
525.397	0.392744
525.742	0.391759
526.087	0.390832
526.433	0.389929
526.778	0.389072
527.123	0.388187
527.468	0.387278
527.813	0.386386
528.158	0.385474
528.504	0.384561
528.849	0.383649
529.193	0.382689
529.538	0.381714
529.883	0.380678
530.228	0.379637
530.573	0.378675
530.918	0.377662
531.263	0.376755
531.607	0.375888
531.952	0.374964
532.296	0.374065
532.641	0.373181
532.986	0.372202
533.330	0.371241
533.675	0.370287
534.019	0.369315
534.363	0.368277
534.708	0.367204
535.052	0.366255
535.396	0.365339
535.741	0.364471
536.085	0.363557
536.429	0.362628
536.773	0.361741
537.117	0.360761
537.461	0.359708
537.805	0.358549
538.149	0.357412
538.493	0.356242
538.837	0.355100
539.181	0.353931
539.524	0.352790
539.868	0.351618
540.212	0.350471
540.556	0.349302
540.899	0.348146
541.243	0.347082
541.586	0.346012
541.930	0.344939
542.273	0.343795
542.617	0.342651
542.960	0.341418
543.304	0.340150
543.647	0.338883
543.990	0.337530
544.333	0.336263
544.677	0.335091
545.020	0.333935
545.363	0.332798
545.706	0.331656
546.049	0.330570
546.392	0.329437
546.735	0.328247
547.078	0.327077
547.421	0.325849
547.764	0.324613
548.106	0.323276
548.449	0.321850
548.792	0.320490
549.135	0.319184
549.477	0.317822
549.820	0.316538
550.162	0.315242
550.505	0.313971
550.847	0.312722
551.190	0.311436
551.532	0.310129
551.875	0.308703
552.217	0.307259
552.559	0.305805
552.901	0.304391
553.244	0.302925
553.586	0.301554
553.928	0.300268
554.270	0.299007
554.612	0.297808
554.954	0.296544
555.296	0.295312
555.638	0.294059
555.980	0.292685
556.322	0.291233
556.663	0.289749
557.005	0.288107
557.347	0.286554
557.689	0.285061
558.030	0.283545
558.372	0.282077
558.713	0.280670
559.055	0.279214
559.396	0.277729
559.738	0.276217
560.079	0.274667
560.421	0.273199
560.762	0.271733
561.103	0.270240
561.444	0.268792
561.786	0.267327
562.127	0.265896
562.468	0.264448
562.809	0.262910
563.150	0.261340
563.491	0.259714
563.832	0.258065
564.173	0.256380
564.514	0.254645
564.855	0.252807
565.195	0.250897
565.536	0.248960
565.877	0.247060
566.218	0.245225
566.558	0.243444
566.899	0.241729
567.239	0.240205
567.580	0.238804
567.920	0.237548
568.261	0.236435
568.601	0.235402
568.941	0.234444
569.282	0.233523
569.622	0.232564
569.962	0.231649
570.302	0.230743
570.643	0.229929
570.983	0.229188
571.323	0.228507
571.663	0.227815
572.003	0.227144
572.343	0.226476
572.683	0.225717
573.022	0.224858
573.362	0.223964
573.702	0.223090
574.042	0.222268
574.381	0.221439
574.721	0.220631
575.061	0.219884
575.400	0.219210
575.740	0.218509
576.079	0.217797
576.419	0.216971
576.758	0.216122
577.097	0.215178
577.437	0.214201
577.776	0.213153
578.115	0.212120
578.454	0.211135
578.794	0.210321
579.133	0.209624
579.472	0.209027
579.811	0.208479
580.150	0.207936
580.489	0.207390
580.828	0.206751
581.167	0.206069
581.505	0.205401
581.844	0.204716
582.183	0.203990
582.522	0.203244
582.860	0.202520
583.199	0.201822
583.538	0.201218
583.876	0.200639
584.215	0.200114
584.553	0.199621
584.891	0.199146
585.230	0.198668
585.568	0.198135
585.906	0.197487
586.245	0.196810
586.583	0.196068
586.921	0.195412
587.259	0.194849
587.597	0.194306
587.935	0.193748
588.273	0.193123
588.611	0.192379
588.949	0.191584
589.287	0.190758
589.625	0.189899
589.963	0.189118
590.300	0.188385
590.638	0.187712
590.976	0.187089
591.313	0.186446
591.651	0.185744
591.989	0.185051
592.326	0.184368
592.664	0.183786
593.001	0.183221
593.338	0.182669
593.676	0.182197
594.013	0.181697
594.350	0.181237
594.687	0.180780
595.025	0.180405
595.362	0.180007
595.699	0.179596
596.036	0.179202
596.373	0.178801
596.710	0.178413
597.047	0.177958
597.384	0.177492
597.720	0.177019
598.057	0.176492
598.394	0.175969
598.731	0.175462
599.067	0.174951
599.404	0.174414
599.741	0.173869
600.077	0.173358
600.414	0.172909
600.750	0.172517
601.087	0.172192
