Date	2021年06月15日火曜日 04時45分16秒
Spectrometers	USB2+H05879
ダーク	使用
リファレンス	使用
積分時間[msec]	10
平均回数	280
ｽﾑｰｼﾞﾝｸﾞ	10
Electrical Dark	USE
ピクセル数	2048
計測モード	吸光度
保存開始波長[nm]	190.664
保存終了波長[nm]	884.878
保存ﾋﾟｯﾁ波長[nm]	全波長

>>>>>>>>>> Data Start <<<<<<<<<<<<
190.664	0.000000
191.040	0.000000
191.415	0.000000
191.791	-2.610306
192.166	-0.452172
192.542	-0.868732
192.917	0.000000
193.293	-0.435287
193.668	-0.065458
194.044	-1.034595
194.419	0.000000
194.794	-1.317280
195.170	-1.243465
195.545	-1.150507
195.920	-1.021260
196.296	-0.902604
196.671	-0.748306
197.046	-0.594552
197.421	-0.550806
197.796	-0.554432
198.171	-0.523544
198.546	-0.478290
198.922	-0.434742
199.297	-0.414526
199.672	-0.402862
200.047	-0.383137
200.422	-0.362897
200.796	-0.352420
201.171	-0.335285
201.546	-0.339207
201.921	-0.334729
202.296	-0.321476
202.671	-0.295573
203.045	-0.267202
203.420	-0.263136
203.795	-0.245875
204.170	-0.239027
204.544	-0.232122
204.919	-0.230315
205.294	-0.224408
205.668	-0.209437
206.043	-0.195371
206.417	-0.202108
206.792	-0.193089
207.166	-0.190863
207.541	-0.183136
207.915	-0.188245
208.289	-0.167212
208.664	-0.169866
209.038	-0.166523
209.412	-0.147789
209.787	-0.128185
210.161	-0.114654
210.535	-0.119874
210.909	-0.116556
211.284	-0.110608
211.658	-0.116458
212.032	-0.120618
212.406	-0.127250
212.780	-0.127074
213.154	-0.122466
213.528	-0.125136
213.902	-0.122299
214.276	-0.114613
214.650	-0.114446
215.024	-0.098875
215.398	-0.095728
215.772	-0.089327
216.145	-0.088146
216.519	-0.079476
216.893	-0.081605
217.267	-0.080424
217.640	-0.088930
218.014	-0.082205
218.388	-0.071798
218.761	-0.074594
219.135	-0.059616
219.508	-0.059677
219.882	-0.061074
220.256	-0.052972
220.629	-0.046097
221.003	-0.046250
221.376	-0.045838
221.749	-0.048568
222.123	-0.046507
222.496	-0.042605
222.869	-0.044886
223.243	-0.039427
223.616	-0.037644
223.989	-0.039783
224.362	-0.035832
224.736	-0.034327
225.109	-0.040325
225.482	-0.029878
225.855	-0.032420
226.228	-0.027290
226.601	-0.024852
226.974	-0.032401
227.347	-0.016765
227.720	-0.009817
228.093	-0.019783
228.466	-0.032874
228.839	-0.031021
229.212	-0.027916
229.585	-0.031155
229.957	-0.030609
230.330	-0.032021
230.703	-0.026400
231.076	-0.033059
231.448	-0.037660
231.821	-0.036358
232.194	-0.044800
232.566	-0.047671
232.939	-0.043376
233.311	-0.054509
233.684	-0.053327
234.056	-0.057928
234.429	-0.055937
234.801	-0.052890
235.174	-0.060530
235.546	-0.068221
235.918	-0.063769
236.291	-0.054890
236.663	-0.051614
237.035	-0.046888
237.408	-0.037971
237.780	-0.027660
238.152	-0.024134
238.524	-0.034011
238.896	-0.029553
239.268	-0.026241
239.641	-0.030630
240.013	-0.017481
240.385	-0.011452
240.757	-0.015607
241.129	-0.011777
241.500	-0.018701
241.872	-0.020843
242.244	-0.017558
242.616	-0.016696
242.988	-0.009029
243.360	-0.003201
243.731	0.003849
244.103	0.003591
244.475	-0.001071
244.847	-0.005907
245.218	-0.004827
245.590	-0.007415
245.961	-0.011262
246.333	-0.005724
246.705	-0.013402
247.076	-0.014348
247.448	-0.013206
247.819	-0.017167
248.190	-0.009821
248.562	-0.008383
248.933	-0.008908
249.305	0.002320
249.676	0.004475
250.047	-0.000055
250.418	-0.000634
250.790	-0.006998
251.161	-0.010726
251.532	-0.010564
251.903	-0.014187
252.274	-0.005251
252.645	0.002359
253.016	0.000210
253.387	0.001171
253.758	0.007499
254.129	0.005753
254.500	0.018101
254.871	0.024249
255.242	0.025086
255.613	0.024025
255.984	0.015837
256.355	0.020212
256.725	0.022195
257.096	0.018861
257.467	0.024151
257.838	0.028724
258.208	0.024740
258.579	0.034641
258.949	0.036940
259.320	0.035562
259.690	0.041609
260.061	0.038883
260.431	0.041427
260.802	0.041362
261.172	0.040932
261.543	0.036418
261.913	0.039639
262.283	0.035591
262.654	0.034481
263.024	0.030608
263.394	0.035940
263.764	0.043585
264.135	0.045085
264.505	0.044615
264.875	0.050868
265.245	0.046709
265.615	0.041351
265.985	0.048947
266.355	0.042122
266.725	0.041660
267.095	0.046783
267.465	0.046545
267.835	0.041602
268.205	0.034128
268.575	0.041208
268.944	0.041835
269.314	0.040750
269.684	0.039922
270.054	0.034076
270.423	0.036177
270.793	0.038569
271.163	0.039051
271.532	0.035712
271.902	0.038005
272.271	0.041247
272.641	0.036695
273.010	0.034052
273.380	0.031114
273.749	0.021794
274.119	0.027700
274.488	0.036454
274.857	0.035946
275.227	0.037155
275.596	0.039434
275.965	0.045434
276.335	0.041399
276.704	0.039516
277.073	0.042003
277.442	0.045875
277.811	0.050381
278.180	0.056467
278.549	0.058409
278.918	0.058082
279.287	0.059050
279.656	0.060891
280.025	0.058788
280.394	0.055836
280.763	0.057365
281.132	0.064579
281.501	0.069862
281.869	0.067537
282.238	0.066391
282.607	0.063966
282.976	0.064608
283.344	0.067881
283.713	0.063857
284.081	0.063555
284.450	0.067282
284.819	0.071045
285.187	0.075655
285.556	0.080214
285.924	0.074007
286.292	0.072046
286.661	0.068294
287.029	0.071451
287.398	0.071202
287.766	0.066373
288.134	0.070358
288.502	0.075654
288.871	0.082679
289.239	0.088047
289.607	0.085803
289.975	0.080909
290.343	0.081977
290.711	0.079343
291.079	0.078732
291.447	0.087069
291.815	0.092522
292.183	0.095025
292.551	0.095434
292.919	0.094921
293.287	0.096679
293.655	0.102305
294.022	0.106718
294.390	0.116000
294.758	0.118133
295.126	0.115055
295.493	0.120591
295.861	0.125784
296.229	0.127808
296.596	0.128971
296.964	0.127333
297.331	0.130828
297.699	0.135623
298.066	0.140164
298.434	0.147795
298.801	0.150993
299.168	0.150575
299.536	0.149364
299.903	0.148588
300.270	0.146616
300.638	0.148235
301.005	0.148295
301.372	0.148976
301.739	0.156499
302.106	0.157563
302.473	0.167072
302.840	0.179014
303.207	0.201151
303.574	0.213595
303.941	0.223604
304.308	0.232437
304.675	0.244295
305.042	0.264804
305.409	0.284390
305.776	0.299648
306.143	0.318774
306.509	0.336971
306.876	0.361849
307.243	0.386697
307.610	0.410589
307.976	0.440712
308.343	0.472038
308.709	0.508259
309.076	0.542614
309.442	0.564377
309.809	0.593508
310.175	0.627026
310.542	0.651869
310.908	0.677989
311.275	0.703253
311.641	0.735264
312.007	0.761909
312.373	0.799418
312.740	0.824802
313.106	0.850749
313.472	0.884807
313.838	0.914509
314.204	0.942022
314.570	0.966019
314.936	0.991029
315.302	1.016167
315.668	1.040381
316.034	1.065183
316.400	1.092527
316.766	1.112700
317.132	1.149114
317.498	1.175697
317.864	1.187941
318.230	1.211234
318.595	1.229189
318.961	1.246706
319.327	1.268962
319.692	1.283273
320.058	1.292758
320.424	1.307793
320.789	1.325204
321.155	1.344084
321.520	1.360011
321.886	1.384469
322.251	1.404081
322.616	1.420471
322.982	1.436197
323.347	1.447986
323.712	1.462597
324.078	1.472281
324.443	1.484283
324.808	1.490606
325.173	1.502097
325.539	1.516171
325.904	1.523986
326.269	1.534175
326.634	1.548468
326.999	1.555824
327.364	1.569011
327.729	1.579661
328.094	1.587413
328.459	1.597106
328.823	1.600885
329.188	1.610710
329.553	1.608929
329.918	1.614568
330.283	1.619607
330.647	1.628776
331.012	1.635787
331.377	1.641279
331.741	1.646153
332.106	1.655066
332.470	1.660064
332.835	1.662015
333.199	1.667682
333.564	1.675678
333.928	1.679449
334.293	1.680691
334.657	1.681178
335.021	1.686911
335.386	1.689613
335.750	1.693540
336.114	1.694017
336.478	1.697935
336.843	1.699070
337.207	1.703867
337.571	1.706051
337.935	1.710949
338.299	1.711158
338.663	1.711110
339.027	1.712635
339.391	1.716000
339.755	1.715668
340.119	1.717194
340.483	1.720013
340.846	1.723756
341.210	1.726131
341.574	1.728000
341.938	1.731188
342.301	1.735144
342.665	1.736682
343.029	1.739828
343.392	1.743093
343.756	1.746928
344.119	1.747694
344.483	1.748592
344.846	1.751804
345.210	1.755234
345.573	1.752902
345.937	1.754048
346.300	1.756719
346.663	1.757874
347.027	1.758939
347.390	1.759777
347.753	1.759172
348.116	1.758843
348.479	1.759194
348.843	1.759671
349.206	1.759498
349.569	1.758243
349.932	1.759967
350.295	1.758791
350.658	1.760871
351.021	1.763012
351.383	1.763305
351.746	1.764781
352.109	1.765270
352.472	1.764509
352.835	1.764044
353.197	1.766550
353.560	1.769056
353.923	1.769530
354.285	1.769489
354.648	1.770879
355.011	1.771262
355.373	1.774169
355.736	1.775119
356.098	1.774621
356.461	1.774622
356.823	1.775939
357.185	1.779226
357.548	1.781239
357.910	1.783523
358.272	1.780837
358.635	1.779059
358.997	1.780292
359.359	1.783281
359.721	1.784225
360.083	1.787273
360.445	1.788813
360.807	1.789971
361.169	1.789141
361.531	1.791087
361.893	1.792199
362.255	1.791778
362.617	1.793539
362.979	1.794138
363.341	1.795402
363.703	1.796287
364.064	1.799682
364.426	1.801806
364.788	1.802376
365.149	1.802135
365.511	1.802742
365.873	1.806572
366.234	1.809265
366.596	1.810806
366.957	1.810757
367.319	1.812877
367.680	1.813074
368.042	1.812462
368.403	1.813469
368.764	1.815021
369.126	1.815053
369.487	1.817358
369.848	1.817834
370.209	1.819176
370.570	1.821161
370.931	1.824009
371.293	1.825000
371.654	1.823621
372.015	1.825194
372.376	1.825934
372.737	1.826575
373.098	1.827749
373.458	1.828069
373.819	1.829724
374.180	1.831177
374.541	1.831576
374.902	1.833217
375.263	1.834386
375.623	1.834015
375.984	1.836076
376.345	1.836704
376.705	1.838707
377.066	1.840314
377.426	1.840601
377.787	1.841431
378.147	1.841783
378.508	1.840228
378.868	1.841940
379.228	1.842950
379.589	1.842231
379.949	1.844119
380.309	1.844433
380.670	1.845989
381.030	1.846493
381.390	1.846671
381.750	1.846238
382.110	1.845845
382.470	1.845943
382.830	1.848310
383.190	1.851402
383.550	1.852207
383.910	1.854381
384.270	1.855424
384.630	1.856595
384.990	1.859999
385.350	1.861431
385.709	1.862448
386.069	1.865336
386.429	1.866229
386.788	1.867576
387.148	1.870769
387.508	1.872084
387.867	1.873986
388.227	1.872434
388.586	1.873474
388.946	1.875255
389.305	1.876147
389.665	1.879158
390.024	1.880496
390.383	1.880252
390.743	1.881137
391.102	1.880673
391.461	1.881738
391.820	1.883104
392.179	1.880742
392.539	1.881662
392.898	1.883434
393.257	1.883438
393.616	1.885419
393.975	1.884297
394.334	1.885706
394.693	1.885776
395.051	1.886861
395.410	1.886867
395.769	1.890444
396.128	1.892657
396.487	1.892464
396.845	1.893545
397.204	1.891854
397.563	1.890355
397.921	1.890881
398.280	1.889982
398.638	1.890123
398.997	1.889722
399.355	1.888052
399.714	1.891067
400.072	1.888869
400.431	1.885684
400.789	1.885812
401.147	1.883455
401.506	1.883376
401.864	1.881536
402.222	1.879607
402.580	1.877032
402.938	1.878107
403.297	1.875905
403.655	1.874306
404.013	1.873461
404.371	1.872166
404.729	1.872220
405.087	1.872308
405.444	1.870557
405.802	1.870496
406.160	1.870648
406.518	1.869163
406.876	1.868349
407.233	1.865082
407.591	1.863733
407.949	1.864937
408.306	1.863714
408.664	1.863834
409.022	1.864674
409.379	1.864731
409.737	1.863291
410.094	1.860982
410.451	1.858866
410.809	1.858472
411.166	1.857009
411.523	1.857344
411.881	1.857634
412.238	1.857173
412.595	1.855508
412.952	1.854982
413.310	1.852874
413.667	1.851726
414.024	1.852200
414.381	1.852128
414.738	1.851654
415.095	1.850727
415.452	1.848404
415.809	1.848235
416.165	1.846762
416.522	1.844381
416.879	1.842432
417.236	1.840458
417.593	1.840714
417.949	1.839432
418.306	1.838877
418.663	1.839398
419.019	1.836005
419.376	1.833081
419.732	1.830326
420.089	1.829419
420.445	1.826761
420.802	1.826981
421.158	1.825282
421.514	1.822818
421.871	1.820556
422.227	1.818983
422.583	1.819025
422.939	1.816575
423.295	1.814103
423.652	1.812438
424.008	1.809942
424.364	1.807994
424.720	1.808170
425.076	1.806529
425.432	1.804736
425.788	1.801686
426.143	1.797594
426.499	1.796166
426.855	1.794022
427.211	1.792467
427.567	1.790319
427.922	1.789242
428.278	1.784125
428.634	1.782581
428.989	1.779443
429.345	1.776778
429.700	1.773968
430.056	1.771692
430.411	1.770771
430.767	1.768591
431.122	1.765276
431.478	1.762810
431.833	1.760152
432.188	1.755562
432.543	1.752621
432.899	1.748972
433.254	1.745383
433.609	1.742321
433.964	1.738256
434.319	1.734207
434.674	1.729741
435.029	1.726080
435.384	1.722063
435.739	1.719476
436.094	1.715429
436.449	1.712634
436.804	1.709269
437.158	1.705089
437.513	1.700161
437.868	1.694776
438.223	1.690762
438.577	1.686235
438.932	1.683136
439.287	1.679449
439.641	1.676286
439.996	1.672050
440.350	1.667950
440.704	1.664602
441.059	1.660454
441.413	1.656142
441.768	1.651812
442.122	1.649085
442.476	1.644890
442.830	1.640227
443.185	1.636533
443.539	1.632052
443.893	1.627313
444.247	1.622492
444.601	1.619325
444.955	1.614420
445.309	1.610527
445.663	1.605539
446.017	1.601072
446.371	1.595542
446.724	1.590595
447.078	1.585592
447.432	1.580578
447.786	1.575617
448.139	1.569769
448.493	1.564416
448.847	1.559297
449.200	1.554544
449.554	1.548918
449.907	1.543741
450.261	1.538129
450.614	1.532954
450.968	1.527456
451.321	1.522496
451.674	1.517260
452.027	1.511089
452.381	1.505840
452.734	1.500673
453.087	1.495095
453.440	1.489298
453.793	1.483822
454.146	1.477912
454.499	1.472372
454.852	1.466376
455.205	1.460865
455.558	1.456379
455.911	1.451341
456.264	1.446090
456.617	1.441026
456.970	1.436129
457.322	1.431519
457.675	1.427140
458.028	1.422320
458.380	1.418045
458.733	1.412983
459.086	1.408756
459.438	1.404175
459.791	1.399635
460.143	1.394857
460.496	1.390640
460.848	1.386297
461.200	1.381571
461.553	1.377335
461.905	1.372929
462.257	1.368205
462.609	1.363937
462.961	1.359386
463.314	1.354917
463.666	1.350518
464.018	1.346035
464.370	1.341695
464.722	1.337462
465.074	1.333184
465.426	1.328910
465.777	1.324883
466.129	1.321206
466.481	1.317298
466.833	1.313776
467.184	1.310091
467.536	1.305828
467.888	1.301484
468.239	1.297239
468.591	1.292726
468.943	1.287662
469.294	1.282754
469.646	1.278545
469.997	1.273720
470.348	1.268850
470.700	1.264681
471.051	1.260686
471.402	1.256587
471.754	1.252584
472.105	1.248619
472.456	1.245054
472.807	1.241535
473.158	1.238188
473.509	1.234955
473.860	1.231734
474.211	1.228306
474.562	1.225065
474.913	1.221910
475.264	1.219106
475.615	1.216114
475.966	1.213309
476.316	1.210201
476.667	1.206983
477.018	1.204050
477.368	1.200992
477.719	1.197928
478.070	1.194677
478.420	1.191577
478.771	1.188506
479.121	1.185544
479.472	1.182556
479.822	1.179534
480.172	1.176547
480.523	1.173252
480.873	1.169899
481.223	1.165855
481.573	1.162042
481.924	1.158302
482.274	1.154493
482.624	1.151121
482.974	1.148020
483.324	1.145484
483.674	1.143336
484.024	1.141433
484.374	1.139232
484.724	1.137212
485.073	1.135228
485.423	1.133336
485.773	1.131194
486.123	1.129302
486.472	1.127185
486.822	1.125070
487.172	1.123023
487.521	1.120958
487.871	1.118856
488.220	1.116701
488.570	1.114437
488.919	1.111595
489.268	1.108391
489.618	1.104846
489.967	1.100492
490.316	1.095942
490.666	1.090859
491.015	1.086122
491.364	1.081550
491.713	1.077715
492.062	1.073987
492.411	1.070434
492.760	1.067058
493.109	1.063912
493.458	1.060505
493.807	1.057396
494.156	1.054132
494.505	1.050860
494.853	1.047570
495.202	1.044213
495.551	1.040794
495.900	1.037521
496.248	1.034096
496.597	1.030681
496.945	1.027587
497.294	1.024533
497.642	1.021230
497.991	1.018207
498.339	1.015041
498.688	1.012037
499.036	1.009097
499.384	1.006110
499.732	1.003166
500.081	1.000064
500.429	0.996960
500.777	0.993915
501.125	0.990950
501.473	0.988031
501.821	0.985221
502.169	0.982530
502.517	0.979836
502.865	0.977201
503.213	0.974395
503.561	0.971746
503.908	0.969113
504.256	0.966265
504.604	0.963427
504.952	0.960699
505.299	0.957761
505.647	0.955060
505.994	0.952261
506.342	0.949397
506.689	0.946669
507.037	0.943928
507.384	0.941112
507.732	0.938410
508.079	0.935776
508.426	0.932974
508.774	0.930271
509.121	0.927642
509.468	0.924936
509.815	0.922402
510.162	0.919677
510.509	0.917246
510.856	0.914758
511.203	0.912234
511.550	0.909772
511.897	0.907433
512.244	0.905151
512.591	0.902800
512.938	0.900436
513.284	0.898045
513.631	0.895708
513.978	0.893355
514.324	0.890909
514.671	0.888588
515.018	0.886243
515.364	0.883982
515.711	0.881838
516.057	0.879559
516.403	0.877195
516.750	0.874869
517.096	0.872642
517.443	0.870440
517.789	0.868051
518.135	0.865821
518.481	0.863632
518.827	0.861564
519.173	0.859240
519.519	0.856902
519.865	0.854721
520.211	0.852481
520.557	0.850264
520.903	0.847961
521.249	0.845689
521.595	0.843525
521.941	0.841086
522.287	0.838564
522.632	0.835966
522.978	0.833507
523.324	0.831182
523.669	0.828756
524.015	0.826303
524.360	0.823680
524.706	0.821249
525.051	0.818955
525.397	0.816500
525.742	0.814029
526.087	0.811716
526.433	0.809578
526.778	0.807489
527.123	0.805180
527.468	0.802878
527.813	0.800869
528.158	0.798586
528.504	0.796193
528.849	0.793605
529.193	0.791253
529.538	0.789008
529.883	0.786599
530.228	0.783975
530.573	0.781479
530.918	0.779076
531.263	0.776610
531.607	0.774253
531.952	0.771814
532.296	0.769296
532.641	0.766992
532.986	0.764493
533.330	0.761910
533.675	0.759421
534.019	0.756660
534.363	0.754073
534.708	0.751420
535.052	0.748586
535.396	0.745990
535.741	0.743488
536.085	0.740943
536.429	0.738410
536.773	0.735690
537.117	0.733044
537.461	0.730216
537.805	0.727181
538.149	0.724000
538.493	0.720920
538.837	0.717848
539.181	0.714755
539.524	0.711639
539.868	0.708499
540.212	0.705466
540.556	0.702345
540.899	0.699261
541.243	0.696343
541.586	0.693271
541.930	0.690185
542.273	0.686983
542.617	0.683777
542.960	0.680426
543.304	0.676997
543.647	0.673412
543.990	0.669883
544.333	0.666246
544.677	0.662786
545.020	0.659291
545.363	0.655899
545.706	0.652483
546.049	0.649075
546.392	0.645690
546.735	0.642260
547.078	0.638732
547.421	0.635130
547.764	0.631528
548.106	0.627605
548.449	0.623573
548.792	0.619608
549.135	0.615671
549.477	0.611782
549.820	0.607868
550.162	0.604047
550.505	0.600196
550.847	0.596293
551.190	0.592266
551.532	0.588141
551.875	0.583780
552.217	0.579406
552.559	0.575030
552.901	0.570708
553.244	0.566363
553.586	0.562170
553.928	0.558117
554.270	0.554178
554.612	0.550297
554.954	0.546356
555.296	0.542413
555.638	0.538381
555.980	0.534133
556.322	0.529674
556.663	0.525092
557.005	0.520446
557.347	0.515807
557.689	0.511275
558.030	0.506832
558.372	0.502365
558.713	0.497898
559.055	0.493562
559.396	0.489185
559.738	0.484713
560.079	0.480274
560.421	0.475933
560.762	0.471583
561.103	0.467274
561.444	0.462984
561.786	0.458832
562.127	0.454718
562.468	0.450564
562.809	0.446316
563.150	0.441949
563.491	0.437508
563.832	0.432909
564.173	0.428166
564.514	0.423294
564.855	0.418293
565.195	0.413185
565.536	0.408120
565.877	0.403203
566.218	0.398337
566.558	0.393582
566.899	0.389064
567.239	0.384757
567.580	0.380713
567.920	0.377000
568.261	0.373592
568.601	0.370330
568.941	0.367179
569.282	0.364156
569.622	0.361215
569.962	0.358294
570.302	0.355422
570.643	0.352628
570.983	0.349980
571.323	0.347444
571.663	0.344994
572.003	0.342552
572.343	0.340107
572.683	0.337533
573.022	0.334825
573.362	0.332002
573.702	0.329190
574.042	0.326429
574.381	0.323720
574.721	0.321086
575.061	0.318533
575.400	0.316183
575.740	0.313841
576.079	0.311553
576.419	0.309142
576.758	0.306624
577.097	0.304042
577.437	0.301372
577.776	0.298662
578.115	0.295978
578.454	0.293422
578.794	0.291117
579.133	0.289051
579.472	0.287158
579.811	0.285429
580.150	0.283736
580.489	0.281989
580.828	0.280120
581.167	0.278158
581.505	0.276191
581.844	0.274222
582.183	0.272262
582.522	0.270292
582.860	0.268426
583.199	0.266641
583.538	0.264967
583.876	0.263346
584.215	0.261713
584.553	0.260068
584.891	0.258460
585.230	0.256800
585.568	0.255075
585.906	0.253277
586.245	0.251502
586.583	0.249803
586.921	0.248225
587.259	0.246792
587.597	0.245456
587.935	0.244057
588.273	0.242584
588.611	0.240909
588.949	0.239139
589.287	0.237314
589.625	0.235480
589.963	0.233741
590.300	0.232061
590.638	0.230492
590.976	0.228953
591.313	0.227418
591.651	0.225850
591.989	0.224300
592.326	0.222836
592.664	0.221507
593.001	0.220204
593.338	0.219015
593.676	0.217893
594.013	0.216801
594.350	0.215714
594.687	0.214700
595.025	0.213764
595.362	0.212780
595.699	0.211785
596.036	0.210789
596.373	0.209744
596.710	0.208683
597.047	0.207579
597.384	0.206500
597.720	0.205403
598.057	0.204316
598.394	0.203208
598.731	0.202155
599.067	0.201081
599.404	0.199990
599.741	0.198920
600.077	0.197938
600.414	0.196985
600.750	0.196153
601.087	0.195367
601.423	0.194585
601.759	0.193772
602.096	0.192934
602.432	0.192138
